BOXY.EXE: ISS Imagent Data Acquisition Program Version 0.82
Ascii Record File

#ACQ INFORMATION
1  Detector Channels 
8  External MUX Channels 
4  Auxiliary Analog Channels 
5000  Waveform (CCF) Frequency (Hz)
4  Waveforms Skipped 
26  Waveforms Averaged 
1  Cycles Averaged 
8  Acquisitions per Waveform 
1  Auxiliary Digital Channels 

#Data Update Rate
20.8333  Update Rate (Hz) 
FALSE -- Use Phase Reference
FALSE -- Use Continuous Phase Reference
FALSE -- Use Intensity Reference
FALSE -- Use Continuous Intensity Reference

#FILE INFORMATION
TRUE -- External MUX Channel results are PARSED.
FALSE -- AC DC and Phase are NOT grouped.
TRUE -- Companion Program Settings File CREATED.
FALSE -- AC data not excluded
FALSE -- DC data not excluded
FALSE -- Phase data not excluded
FALSE -- Auxillary Chn. data not excluded
Tab delimiters

#CALIBRATION STATE
FALSE -- Waveform Calibration Values NOT applied.

#WAVELENGTH DATA
Wavelength Index	Wavelength	Comp1 ExtCoef	Comp2 ExtCoef	Comp3 ExtCoef	Comp4 ExtCoef	BackGround	Weight	

1	6.600e+02	1.486e+00	3.844e+00	1.000e+00	1.000e+00	1.890e-02	1.000e+00	
2	6.900e+02	2.315e+00	1.792e+00	1.000e+00	1.000e+00	2.180e-02	1.000e+00	
3	7.500e+02	1.000e+00	1.000e+00	1.000e+00	1.000e+00	3.010e-03	1.000e+00	
4	7.750e+02	1.000e+00	1.000e+00	1.000e+00	1.000e+00	3.240e-03	1.000e+00	
5	7.850e+02	1.000e+00	1.000e+00	1.000e+00	1.000e+00	1.660e-02	1.000e+00	
6	8.000e+02	1.000e+00	1.000e+00	1.000e+00	1.000e+00	1.480e-02	1.000e+00	
7	8.250e+02	1.000e+00	1.000e+00	1.000e+00	1.000e+00	1.620e-02	1.000e+00	
8	8.300e+02	1.000e+00	1.000e+00	1.000e+00	1.000e+00	2.620e-02	1.000e+00	


#AUX CALIBRATION VALUES
Val Type	aux-1	aux-2	aux-3	aux-4	

Term	0.0000e+00	0.0000e+00	0.0000e+00	0.0000e+00	
Factor	1.0000e+00	1.0000e+00	1.0000e+00	1.0000e+00	


#WF CALIBRATION VALUES
A = Detector Channel
Val Type	A-AC1	A-AC2	A-AC3	A-AC4	A-AC5	A-AC6	A-AC7	A-AC8	A-DC1	A-DC2	A-DC3	A-DC4	A-DC5	A-DC6	A-DC7	A-DC8	A-Ph1	A-Ph2	A-Ph3	A-Ph4	A-Ph5	A-Ph6	A-Ph7	A-Ph8	

Term	0.00000e+00	0.00000e+00	0.00000e+00	0.00000e+00	0.00000e+00	0.00000e+00	0.00000e+00	0.00000e+00	0.00000e+00	0.00000e+00	0.00000e+00	0.00000e+00	0.00000e+00	0.00000e+00	0.00000e+00	0.00000e+00	-1.05892e+02	-9.99249e+01	-2.86485e+02	-2.62799e+02	-2.45797e+02	-2.48632e+02	-7.72400e+01	-7.86612e+01	
Factor	3.48934e-02	2.88771e-02	2.23541e-02	4.58344e-02	3.11822e-02	3.92311e-02	3.80806e-02	2.80088e-02	4.70955e+01	8.07534e+01	3.66973e+01	1.04434e+02	6.45565e+01	3.94082e+01	9.13796e+01	5.49806e+01	X	X	X	X	X	X	X	X	



#DISTANCE SETTINGS
A = Detector Channel
A-1	A-2	A-3	A-4	A-5	A-6	A-7	A-8	

1.5000e+00	1.5000e+00	1.5000e+00	1.5000e+00	1.5000e+00	1.5000e+00	1.5000e+00	1.5000e+00	



#ADDITIONAL SIGNAL INFORMATION
A = Detector Channel
Info. Type	A-1	A-2	A-3	A-4	A-5	A-6	A-7	A-8	

cal. block. ind.	1	1	1	1	1	1	1	1	
wavelength ind.	0	1	2	3	4	5	6	7	
weight	1.0000e+00	1.0000e+00	1.0000e+00	1.0000e+00	1.0000e+00	1.0000e+00	1.0000e+00	1.0000e+00	


#CALIBRATION BLOCK OPTICAL PROPS
Calib. Block Num.	WaveLen Index	Absorption	Scattering	

1	1	1.080e-01	9.000e+00	
1	2	1.300e-01	1.070e+01	
1	3	1.130e-01	9.400e+00	
1	4	1.210e-01	1.000e+01	
1	5	1.080e-01	9.000e+00	
1	6	1.300e-01	1.070e+01	
1	7	1.150e-01	9.600e+00	
1	8	1.330e-01	1.090e+01	

Calib. Block Num.	WaveLen Index	Absorption	Scattering	

2	1	1.120e-01	4.400e+00	
2	2	1.200e-01	5.700e+00	
2	3	1.140e-01	4.600e+00	
2	4	1.160e-01	5.100e+00	
2	5	1.120e-01	4.400e+00	
2	6	1.200e-01	5.700e+00	
2	7	1.150e-01	4.800e+00	
2	8	1.210e-01	6.000e+00	

Calib. Block Num.	WaveLen Index	Absorption	Scattering	

3	1	9.300e-02	8.700e+00	
3	2	1.010e-01	1.040e+01	
3	3	9.500e-02	9.000e+00	
3	4	9.700e-02	9.600e+00	
3	5	9.300e-02	8.700e+00	
3	6	1.010e-01	1.040e+01	
3	7	9.600e-02	9.300e+00	
3	8	1.030e-01	1.080e+01	

Calib. Block Num.	WaveLen Index	Absorption	Scattering	

4	1	1.000e-01	1.000e+01	
4	2	1.000e-01	1.000e+01	
4	3	1.000e-01	1.000e+01	
4	4	1.000e-01	1.000e+01	
4	5	1.000e-01	1.000e+01	
4	6	1.000e-01	1.000e+01	
4	7	1.000e-01	1.000e+01	
4	8	1.000e-01	1.000e+01	



#DATA BEGINS
time	group	step	mark	flag	A-AC1	A-AC2	A-AC3	A-AC4	A-AC5	A-AC6	A-AC7	A-AC8	A-DC1	A-DC2	A-DC3	A-DC4	A-DC5	A-DC6	A-DC7	A-DC8	A-Ph1	A-Ph2	A-Ph3	A-Ph4	A-Ph5	A-Ph6	A-Ph7	A-Ph8	aux-1	aux-2	aux-3	aux-4	digaux	

77731.375	1	1	0	768	3566.41	4.4459	3392.72	1609.8	510.012	4875.38	5.60179	3.3564	5367.1	49.0481	4939.19	2527.58	887.692	8515.79	45.8846	40.8029	153.626	349.671	327.651	331.323	332.069	327.948	99.737	277.158	8192	-8191	8192	8192	254	
77731.422	1	1	0	0	4519.2	4687.42	4112.83	4.09967	3383.52	1616.33	501.458	5013.24	6629.01	7564.2	6172.07	50.8798	4901.42	2525.62	885	8615.76	152.210	340.888	151.235	307.975	327.537	331.157	335.491	327.439	8192	-8191	8192	8192	254	
77731.492	1	1	0	0	4533.2	4631.76	4111.78	7.35081	3395.99	1648.02	524.372	4892.26	6649.71	7515.21	6279.04	50.7837	4913.7	2559.73	905.332	8476.27	152.264	340.704	151.113	318.363	328.138	331.150	335.498	328.023	8192	-8191	8192	8192	254	
77731.539	1	1	0	0	4456.64	4732.66	4202.78	6.18876	3354.86	1603.32	512.561	4917.33	6638.3	7557.11	6352.26	52	4878.17	2519.13	894.587	8498.24	152.622	340.190	151.369	350.282	328.026	332.013	336.148	328.398	8192	-8191	8192	8192	254	
77731.586	1	1	0	0	4513.87	4623.24	4199.81	9.24516	3383.92	1598.48	520.817	4978.28	6622.49	7508.85	6313.88	51.2452	4910.1	2523.94	898.962	8526.43	152.862	340.127	151.205	348.973	327.789	330.844	334.111	327.357	8192	-8191	8192	8192	254	
77731.633	1	1	0	0	4490.59	4664.98	4136.68	5.55727	3468.79	1587.74	522.449	4929.86	6640.5	7533.82	6306.09	49.8942	4944	2519.02	915.303	8566.27	151.166	340.814	151.463	294.188	327.762	330.451	335.835	327.711	8192	-8191	8192	8192	254	
77731.688	1	1	0	0	4525.18	4713.63	4168.28	12.0228	3456.21	1629.5	502.068	4939.5	6618.47	7504.2	6348.13	51.9087	4941.04	2511.71	891.25	8526.38	152.257	341.007	151.437	331.133	326.917	330.132	332.957	328.391	8192	-8191	8192	8192	254	
77731.734	1	1	0	0	4449.09	4655.37	4251.72	6.19246	3474.29	1586.52	519.604	4914.27	6570.31	7492.35	6367.86	48.4038	4945.36	2541.29	899.51	8568.48	152.216	340.145	151.726	6.401	327.469	331.766	334.158	327.694	8192	-8191	8192	8192	254	
77731.781	1	1	0	0	4519.43	4709.78	4240.38	6.1664	3416.37	1544.16	510.953	4892.77	6625.41	7550.74	6386.25	53.0673	4930.43	2484.5	896.404	8513.12	152.231	340.265	151.465	300.756	327.071	330.321	332.864	328.358	8192	-8191	8192	8192	254	
77731.828	1	1	0	0	4510.02	4682.89	4192.17	8.85044	3419.67	1571.65	492.157	4935.25	6631.43	7494.95	6369.4	51.2115	4927.89	2495.99	895.101	8558.38	152.184	340.408	151.685	322.896	327.581	331.733	332.420	327.828	8192	-8191	8192	8192	254	
77731.875	1	1	0	0	4506.5	4595.02	4155.16	11.2383	3375.07	1617.35	506.756	5044.32	6637.37	7452.24	6382.49	49.1827	4905.26	2533.33	907.659	8598.05	151.549	340.121	151.308	328.788	327.442	330.351	335.928	328.430	8192	-8191	8192	8192	254	
77731.922	1	1	0	0	4455.35	4569.26	4202.53	4.73962	3452.35	1611.19	516.273	4835.33	6599.8	7452.06	6387.31	53.3798	4949.96	2525.74	909.957	8529.08	152.238	340.589	151.242	298.020	327.295	331.472	333.950	328.127	8192	-8191	8192	8192	254	
77731.992	1	1	1	0	4490.57	4668.07	4080.97	7.11645	3404.37	1561.68	529.198	4860.91	6571.59	7531.12	6315.25	53.2067	4892.77	2526.79	898.438	8472.07	152.198	340.413	152.147	329.476	327.392	332.423	334.116	328.027	8192	-8191	8192	8192	254	
77732.047	1	1	0	0	4509.44	4685.04	4252.21	7.5364	3348.66	1590.21	503.616	4987.99	6641.08	7526.51	6405.82	49.1779	4886.83	2495.94	901.216	8574.6	151.907	341.016	150.592	330.456	327.744	329.490	332.817	328.190	8192	-8191	8192	8192	254	
77732.094	1	1	0	0	4495.24	4721.98	4200.56	8.21045	3462.63	1604.44	511.923	4939.29	6635.38	7536.75	6372.72	50.8798	4939.04	2523.55	904.625	8568.81	151.629	340.436	150.486	13.793	327.335	330.611	334.209	327.824	8192	-8191	8192	8192	254	
77732.141	1	1	0	0	4502.02	4679.19	4179.37	11.5007	3337.95	1593.08	522.099	4966.99	6632.12	7519.18	6368.11	58.1971	4892.81	2523.71	902.091	8578.34	152.681	340.218	150.346	349.809	327.207	331.368	332.599	327.520	8192	-8191	8192	8192	254	
77732.141	1	1	0	0	4492.42	4662.22	4257.51	6.54166	3351.13	1585.09	528.351	4949.26	6609.06	7519.58	6428.63	48.0144	4899.81	2511.1	907.25	8532.93	151.854	340.108	151.419	356.369	327.641	330.000	338.084	327.725	8192	-8191	8192	8192	254	
77732.188	1	1	0	0	4463.51	4656.09	4125.76	0.677966	3386.27	1577.7	504.993	4880.27	6596.44	7521.54	6353.11	48.4808	4881	2516.64	889.596	8513.43	152.280	340.262	150.368	331.969	328.192	330.599	333.805	327.367	8192	-8191	8192	8192	254	
77732.234	1	1	0	0	4473.4	4564.21	4196.41	10.2816	3433.9	1569.7	490.366	4935.27	6600.76	7440.56	6356.58	48.2885	4953.92	2505.9	892.88	8510.15	153.151	339.873	150.929	30.949	327.235	328.692	336.023	326.991	8192	-8191	8192	8192	254	
77732.281	1	1	0	0	4502.52	4601.81	4160.18	8.68058	3371.72	1605.63	508.605	4923.29	6632.88	7465.33	6397.27	47.5817	4921.33	2510.2	905.663	8509.5	152.801	340.087	151.204	338.107	327.043	330.241	334.654	327.852	8192	-8191	8192	8192	254	
77732.359	1	1	0	0	4508.75	4650.5	4259.93	7.90121	3363.42	1611.1	498.066	4899.41	6605.28	7487.98	6406.23	52.351	4919.86	2564.11	881.322	8506.54	152.518	340.295	151.883	310.391	327.720	329.606	335.327	327.533	8192	-8191	8192	8192	254	
77732.406	1	1	0	0	4426.27	4666.99	4267.24	10.2543	3420.43	1616.91	523.417	4968.8	6593.65	7503.54	6438.3	51.6346	4960.32	2533.83	903.25	8556.97	152.577	339.973	151.143	321.370	327.082	329.906	333.661	327.159	8192	-8191	8192	8192	254	
77732.453	1	1	0	0	4566.15	4636.06	4205.96	5.20898	3399.96	1597.96	513.756	4971.53	6641.07	7443.79	6408.77	52.7067	4935.86	2526.16	893.37	8554.78	152.585	340.894	150.875	347.619	326.906	331.554	335.522	327.701	8192	-8191	8192	8192	254	
77732.500	1	1	0	0	4533.36	4583.44	4243.17	7.09563	3474	1586.54	512.862	4905.59	6639.98	7486.8	6402.02	53.8894	4934.83	2520.38	906.135	8522.49	152.384	340.790	151.952	351.347	327.458	330.732	334.292	327.754	8192	-8191	8192	8192	254	
77732.547	1	1	0	0	4415.09	4660.51	4250.49	4.86957	3396.87	1642.75	496.809	4929.76	6533.75	7536.14	6401.26	47.8894	4927.93	2553.05	894.212	8539.97	152.810	340.853	151.236	18.369	327.638	332.088	332.736	327.643	8192	-8191	8192	8192	254	
77732.594	1	1	0	0	4493.13	4627.69	4220.38	7.75396	3413.9	1571.62	523.649	4946.43	6623.8	7484.46	6426.83	51.5962	4921.23	2487.92	907.938	8559.69	152.390	340.705	151.497	346.285	327.227	329.593	335.283	327.736	8192	-8191	8192	8192	254	
77732.641	1	1	0	0	4559.96	4648.79	4277.86	8.5584	3393.5	1600.76	514.394	4907.02	6643.17	7500.79	6448.3	52.7308	4914.17	2527.47	886.918	8501.5	152.331	339.792	151.489	321.929	327.506	331.628	333.358	327.966	8192	-8191	8192	8192	254	
77732.695	1	1	0	0	4459.17	4689.14	4238.6	8.60071	3376.93	1609.98	492.971	4910.8	6608.71	7533.9	6402.11	50.2596	4888.81	2530.29	886.293	8573.21	152.015	340.499	151.433	355.520	327.799	331.359	336.082	328.403	8192	-8191	8192	8192	254	
77732.766	1	1	0	0	4559.25	4659	4223.92	6.8691	3410.2	1614.58	501.749	4907.55	6627.92	7504.31	6445.24	53.5144	4923.37	2549.95	884.817	8540.24	152.405	340.958	151.619	329.608	327.418	331.409	334.385	328.241	8192	-8191	8192	8192	254	
77732.812	1	1	0	0	4555.84	4650.08	4157.26	10.1009	3425.48	1609.27	513.341	4974.76	6640.02	7521.76	6380.46	55.024	4939.3	2552.28	897.303	8600.33	152.347	340.416	151.222	357.098	326.631	330.720	333.247	327.266	8192	-8191	8192	8192	254	
77732.859	1	1	0	0	4537.39	4619.85	4280.41	7.17463	3447.24	1599.29	507.273	4996.97	6662.05	7524.15	6449.2	58.6058	4968.54	2536.25	904.779	8596.79	153.010	340.460	152.063	347.939	327.681	332.036	333.757	327.258	8192	-8191	8192	8192	254	
77732.906	1	1	0	0	4564.07	4748.21	4241.73	6.52282	3433.78	1587.7	496.855	5008.38	6666.57	7633.32	6450.5	56.0673	4939.69	2534.85	901.745	8634.93	152.710	340.885	151.519	15.272	326.900	331.596	335.623	327.784	8192	-8191	8192	8192	254	
77732.906	1	1	0	0	4486.4	4748.74	4282.7	2.13178	3454.25	1605.19	537.288	4982.76	6657.53	7572.73	6487.12	55.7404	4995.39	2548.79	930.904	8625.35	152.604	340.111	151.455	255.129	327.467	331.097	334.185	328.320	8192	-8191	8192	8192	254	
77732.953	1	1	0	0	4569.5	4735.78	4233.92	10.9499	3450.02	1612.54	494.815	5083.32	6720.72	7613.48	6497.6	54.7308	4957.3	2556.55	903.091	8701.1	151.953	341.107	151.215	340.780	328.737	331.145	336.120	327.429	8192	-8191	8192	8192	254	
77733.031	1	1	0	0	4510.5	4701.55	4231.03	13.178	3415.72	1563.31	526.749	5026.75	6643.53	7594.01	6489.94	55.2885	4977.23	2538.74	924.154	8693.01	152.191	340.436	151.930	19.580	327.614	331.161	335.993	328.151	8192	-8191	8192	8192	254	
77733.078	1	1	0	0	4518.18	4672.31	4304.6	7.34863	3455.54	1600.47	544.963	4996.32	6677.91	7596.5	6510.41	56.4712	5003.57	2561.51	931.803	8677.11	152.644	340.357	151.951	12.532	327.260	331.711	334.302	327.841	8192	-8191	8192	8192	254	
77733.125	1	1	0	0	4555.84	4753.95	4240.11	12.6674	3409.76	1625.68	523.58	5035.83	6696.42	7589.74	6499.47	58.0865	4971.86	2564.12	918.178	8690.74	152.574	340.093	151.440	339.636	327.637	331.795	331.474	328.586	8192	-8191	8192	8192	254	
77733.172	1	1	0	0	4509.9	4725.13	4239.22	9.31623	3464.78	1594.45	514.758	5062.03	6688.74	7579.08	6481.24	55.9087	4979.3	2522.61	910.438	8654.56	152.308	340.669	151.524	302.238	327.222	330.891	334.753	328.032	8192	-8191	8192	8192	254	
77733.219	1	1	0	0	4526.53	4735.45	4285.2	12.9458	3470.05	1632.77	509.102	4965.5	6675.93	7649.01	6469.45	55.4904	5006.14	2579.44	901.88	8642.19	152.143	341.060	151.146	317.583	327.098	332.310	335.508	327.091	8192	-8191	8192	8192	254	
77733.266	1	1	0	0	4609.59	4668.22	4299.27	9.84264	3450.9	1592.69	522.914	5000.14	6721.47	7619.13	6494.5	54.8077	4982.76	2531.94	920.558	8707.73	152.394	340.678	151.819	20.004	327.061	331.482	333.794	327.905	8192	-8191	8192	8192	254	
77733.312	1	1	0	0	4490.26	4755.69	4215.83	0.711221	3454.63	1573.32	528.645	4956.76	6690.71	7611.05	6440.08	55.8846	4996.07	2535.28	920.452	8656.12	152.346	340.738	150.755	104.778	328.087	331.650	335.644	327.451	8192	-8191	8192	8192	254	
77733.367	1	1	0	0	4611.7	4730.42	4268.51	4.5121	3465.27	1655.42	513.951	5034.91	6752.78	7636.04	6490.87	54.5048	5005.1	2577.59	924.495	8713.87	152.214	340.841	150.448	305.595	327.976	330.792	331.215	327.477	8192	-8191	8192	8192	254	
77733.438	1	1	0	0	4551.86	4724	4268.94	3.33327	3355.17	1623.71	521.015	5007.72	6721.36	7582.19	6492.88	56.8654	4921.43	2552.7	922.889	8670.74	152.002	340.012	150.960	54.427	327.372	331.091	335.093	328.136	8192	-8191	8192	8192	254	
77733.484	1	1	0	0	4506.98	4716.1	4256.01	2.94696	3480.11	1589.93	518.78	5060.49	6690.5	7586.44	6482.89	54.6058	5018.96	2551.71	927.486	8698.56	152.228	340.092	151.006	358.813	327.982	331.415	335.184	328.101	8192	-8191	8192	8192	254	
77733.531	1	1	0	0	4535.64	4718.01	4317.21	5.38284	3481.59	1596.55	509.713	4999.7	6738.74	7605.06	6548.31	60.0481	5030.56	2563.88	918.053	8657.17	151.931	340.432	151.137	1.539	326.395	331.853	335.303	328.084	8192	-8191	8192	8192	254	
77733.578	1	1	0	0	4542.86	4749.56	4241.2	14.8456	3459.25	1621.7	509.848	4984.59	6708.48	7650.13	6460.21	57.4567	5003.59	2576.48	924.312	8639.58	151.882	340.831	151.297	4.199	327.858	332.064	333.072	327.773	8192	-8191	8192	8192	254	
77733.625	1	1	0	0	4586.99	4667.48	4238.1	7.2103	3476.51	1617.3	548.075	4994.64	6746.55	7616.8	6506.95	56.2115	5055.71	2544.4	940.332	8639.11	151.693	340.257	151.574	320.880	328.074	330.677	337.262	328.266	8192	-8191	8192	8192	254	
77733.680	1	1	0	0	4462.39	4772.37	4253.59	11.6622	3492.63	1581.62	504.812	5015.4	6631.25	7652.19	6535.59	59.8317	4994.52	2562.74	903.183	8719.28	151.453	340.393	151.157	16.314	327.013	330.764	333.579	328.299	8192	-8191	8192	8192	254	
77733.680	1	1	0	0	4616.89	4724.11	4258.43	11.1855	3432.18	1583.17	556.98	4989.1	6727.51	7548.23	6447.95	63.8413	4994.38	2532.04	933.938	8653.35	152.242	340.380	151.251	6.002	327.852	332.158	334.886	327.973	8192	-8191	8192	8192	254	
77733.727	1	1	0	0	4583.54	4731.44	4277.43	6.04826	3449.86	1641.38	521.286	5003.22	6708.82	7618.32	6489.97	56.1827	4997.08	2573.83	928.337	8676.72	151.589	339.936	151.049	296.704	327.460	331.685	332.351	328.110	8192	-8191	8192	8192	254	
77733.773	1	1	0	0	4570.76	4751.12	4238.32	2.15942	3467	1603.76	519.293	5009.61	6750.45	7665.08	6517.82	53.8894	5005.98	2555.38	925.981	8683.12	152.406	339.963	151.868	91.884	327.409	332.139	334.519	327.940	8192	-8191	8192	8192	254	
77733.820	1	1	0	0	4432.64	4692.74	4230.4	6.83908	3405.27	1663.02	551.004	4962.54	6650.16	7605.75	6466.01	56.899	4955.17	2599.32	924.495	8700.88	151.981	340.133	151.508	353.922	327.042	330.883	337.304	328.195	8192	-8191	8192	8192	254	
77733.891	1	1	0	0	4523.63	4647.61	4273.82	15.5112	3473.41	1597.17	521.869	4987.45	6681.24	7562.79	6524.82	60.2404	5009.14	2558.79	921.212	8661.31	152.784	340.196	151.371	308.840	326.871	329.642	335.904	328.119	8192	-8191	8192	8192	254	
77733.938	1	1	0	0	4566.63	4726.52	4210.6	4.77048	3445.67	1638.14	534.782	4971.61	6729.16	7599.64	6477.46	55.7452	4971.62	2572.82	927.529	8682.55	152.781	340.641	151.343	3.190	327.451	331.861	335.445	327.984	8192	-8191	8192	8192	254	
77733.984	1	1	0	0	4597	4675.88	4220.87	9.16713	3386.81	1651.94	528.768	4936.95	6707.61	7597.14	6486.08	64.0144	4948.21	2592.07	928.529	8671.55	152.652	340.133	151.486	10.907	328.313	330.155	333.811	327.848	8192	-8191	8192	8192	254	
77734.039	1	1	0	0	4601.06	4716.08	4270.44	2.95642	3444.63	1614.93	534.701	4997.66	6703.33	7632.98	6520.06	68.3462	4979.75	2589.06	945.601	8669.25	152.985	340.701	151.535	312.795	328.089	331.649	335.333	328.178	8192	-8191	8192	8192	254	
77734.086	1	1	0	0	4563.66	4836.77	4339.17	1.09162	3432.3	1637.23	538.722	4935.92	6702.27	7702.68	6544.67	62.8654	5002.51	2570.55	924.938	8635.59	152.718	340.959	151.177	94.259	328.963	330.639	333.706	327.739	8192	-8191	8192	8192	254	
77734.133	1	1	0	0	4556.11	4636.25	4279.86	7.09324	3430.47	1630.52	501.259	5007.72	6707.39	7562.65	6488.23	64.0721	4985.97	2584.62	918.812	8639.54	152.353	340.761	151.436	321.094	327.994	331.302	332.952	328.003	8192	-8191	8192	8192	254	
77734.180	1	1	0	0	4524.72	4681.11	4254.19	8.87007	3441.76	1605.99	525.837	5049	6667.5	7624.1	6464.31	60.6106	4994.11	2544.43	919.476	8703.94	151.843	341.412	151.115	316.532	327.228	330.807	331.996	328.297	8192	-8191	8192	8192	254	
77734.227	1	1	0	0	4502.77	4713.6	4202.36	5.89621	3429.98	1600.35	526.646	5004.4	6689.8	7613.72	6481.5	57.101	4972.3	2551.67	929.736	8690.67	152.243	340.420	150.985	354.140	327.736	331.350	333.036	327.505	8192	-8191	8192	8192	254	
77734.297	1	1	0	0	4543.5	4743.28	4236.71	10.7173	3417.17	1643.75	513.728	5012	6717.47	7654.95	6487.87	66.9231	5009.43	2584.69	923.034	8700.6	152.483	340.575	150.870	323.365	328.343	330.604	336.586	328.608	8192	-8191	8192	8192	254	
77734.344	1	1	0	0	4458.31	4725.4	4263.54	9.61806	3437.37	1606.56	525.339	4978.71	6676.88	7681.89	6492.77	65.4135	4964.28	2573.89	948.183	8633.21	152.860	340.520	151.203	10.531	326.929	332.565	333.241	327.909	8192	-8191	8192	8192	254	
77734.398	1	1	0	0	4485.14	4726.96	4205.28	7.3912	3499.24	1586.79	508.688	4984.87	6687.2	7630.76	6477.79	69.7981	5059.15	2550.27	918.207	8639.47	152.902	340.530	151.503	326.044	327.285	332.027	333.312	328.274	8192	-8191	8192	8192	254	
77734.445	1	1	0	0	4505.46	4665.24	4302.51	7.53233	3458.36	1615.67	527.015	5035.54	6721.26	7591.39	6524.62	63.5288	5028.97	2555.98	933.173	8710.46	153.221	340.866	151.171	340.577	328.267	331.380	335.056	327.959	8192	-8191	8192	8192	254	
77734.445	1	1	0	0	4549	4802.85	4322.54	7.01227	3459.58	1596.94	551.378	5017.82	6697.68	7652.48	6528.62	68.8269	5026.85	2545.28	947.356	8693.51	152.068	341.166	150.910	339.154	328.009	331.887	334.907	328.283	8192	-8191	8192	8192	254	
77734.492	1	1	0	0	4551.01	4724.86	4305.4	12.1849	3385.51	1613.37	531.282	5011.4	6721.94	7588.3	6539.38	63.5288	4982.02	2576.35	942.726	8689.89	151.551	339.783	150.804	326.398	327.685	329.907	334.640	327.749	8192	-8191	8192	8192	254	
77734.562	1	1	0	0	4629.76	4688.57	4317.54	4.12054	3508.56	1611.64	521.852	4998.16	6703.42	7586.45	6547.23	68.4087	5044.96	2563.24	930.221	8733.27	152.423	340.377	151.861	223.371	327.797	331.804	334.986	327.408	8192	-8191	8192	8192	254	
