BOXY.EXE: ISS Imagent Data Acquisition Program Version 0.82
Ascii Record File

#ACQ INFORMATION
1  Detector Channels 
8  External MUX Channels 
4  Auxiliary Analog Channels 
5000  Waveform (CCF) Frequency (Hz)
4  Waveforms Skipped 
26  Waveforms Averaged 
1  Cycles Averaged 
8  Acquisitions per Waveform 
1  Auxiliary Digital Channels 

#Data Update Rate
20.8333  Update Rate (Hz) 
FALSE -- Use Phase Reference
FALSE -- Use Continuous Phase Reference
FALSE -- Use Intensity Reference
FALSE -- Use Continuous Intensity Reference

#FILE INFORMATION
TRUE -- External MUX Channel results are PARSED.
FALSE -- AC DC and Phase are NOT grouped.
TRUE -- Companion Program Settings File CREATED.
FALSE -- AC data not excluded
FALSE -- DC data not excluded
FALSE -- Phase data not excluded
FALSE -- Auxillary Chn. data not excluded
Tab delimiters

#CALIBRATION STATE
FALSE -- Waveform Calibration Values NOT applied.

#WAVELENGTH DATA
Wavelength Index	Wavelength	Comp1 ExtCoef	Comp2 ExtCoef	Comp3 ExtCoef	Comp4 ExtCoef	BackGround	Weight	

1	6.600e+02	1.486e+00	3.844e+00	1.000e+00	1.000e+00	1.890e-02	1.000e+00	
2	6.900e+02	2.315e+00	1.792e+00	1.000e+00	1.000e+00	2.180e-02	1.000e+00	
3	7.500e+02	1.000e+00	1.000e+00	1.000e+00	1.000e+00	3.010e-03	1.000e+00	
4	7.750e+02	1.000e+00	1.000e+00	1.000e+00	1.000e+00	3.240e-03	1.000e+00	
5	7.850e+02	1.000e+00	1.000e+00	1.000e+00	1.000e+00	1.660e-02	1.000e+00	
6	8.000e+02	1.000e+00	1.000e+00	1.000e+00	1.000e+00	1.480e-02	1.000e+00	
7	8.250e+02	1.000e+00	1.000e+00	1.000e+00	1.000e+00	1.620e-02	1.000e+00	
8	8.300e+02	1.000e+00	1.000e+00	1.000e+00	1.000e+00	2.620e-02	1.000e+00	


#AUX CALIBRATION VALUES
Val Type	aux-1	aux-2	aux-3	aux-4	

Term	0.0000e+00	0.0000e+00	0.0000e+00	0.0000e+00	
Factor	1.0000e+00	1.0000e+00	1.0000e+00	1.0000e+00	


#WF CALIBRATION VALUES
A = Detector Channel
Val Type	A-AC1	A-AC2	A-AC3	A-AC4	A-AC5	A-AC6	A-AC7	A-AC8	A-DC1	A-DC2	A-DC3	A-DC4	A-DC5	A-DC6	A-DC7	A-DC8	A-Ph1	A-Ph2	A-Ph3	A-Ph4	A-Ph5	A-Ph6	A-Ph7	A-Ph8	

Term	0.00000e+00	0.00000e+00	0.00000e+00	0.00000e+00	0.00000e+00	0.00000e+00	0.00000e+00	0.00000e+00	0.00000e+00	0.00000e+00	0.00000e+00	0.00000e+00	0.00000e+00	0.00000e+00	0.00000e+00	0.00000e+00	-1.05892e+02	-9.99249e+01	-2.86485e+02	-2.62799e+02	-2.45797e+02	-2.48632e+02	-7.72400e+01	-7.86612e+01	
Factor	3.48934e-02	2.88771e-02	2.23541e-02	4.58344e-02	3.11822e-02	3.92311e-02	3.80806e-02	2.80088e-02	4.70955e+01	8.07534e+01	3.66973e+01	1.04434e+02	6.45565e+01	3.94082e+01	9.13796e+01	5.49806e+01	X	X	X	X	X	X	X	X	



#DISTANCE SETTINGS
A = Detector Channel
A-1	A-2	A-3	A-4	A-5	A-6	A-7	A-8	

1.5000e+00	1.5000e+00	1.5000e+00	1.5000e+00	1.5000e+00	1.5000e+00	1.5000e+00	1.5000e+00	



#ADDITIONAL SIGNAL INFORMATION
A = Detector Channel
Info. Type	A-1	A-2	A-3	A-4	A-5	A-6	A-7	A-8	

cal. block. ind.	1	1	1	1	1	1	1	1	
wavelength ind.	0	1	2	3	4	5	6	7	
weight	1.0000e+00	1.0000e+00	1.0000e+00	1.0000e+00	1.0000e+00	1.0000e+00	1.0000e+00	1.0000e+00	


#CALIBRATION BLOCK OPTICAL PROPS
Calib. Block Num.	WaveLen Index	Absorption	Scattering	

1	1	1.080e-01	9.000e+00	
1	2	1.300e-01	1.070e+01	
1	3	1.130e-01	9.400e+00	
1	4	1.210e-01	1.000e+01	
1	5	1.080e-01	9.000e+00	
1	6	1.300e-01	1.070e+01	
1	7	1.150e-01	9.600e+00	
1	8	1.330e-01	1.090e+01	

Calib. Block Num.	WaveLen Index	Absorption	Scattering	

2	1	1.120e-01	4.400e+00	
2	2	1.200e-01	5.700e+00	
2	3	1.140e-01	4.600e+00	
2	4	1.160e-01	5.100e+00	
2	5	1.120e-01	4.400e+00	
2	6	1.200e-01	5.700e+00	
2	7	1.150e-01	4.800e+00	
2	8	1.210e-01	6.000e+00	

Calib. Block Num.	WaveLen Index	Absorption	Scattering	

3	1	9.300e-02	8.700e+00	
3	2	1.010e-01	1.040e+01	
3	3	9.500e-02	9.000e+00	
3	4	9.700e-02	9.600e+00	
3	5	9.300e-02	8.700e+00	
3	6	1.010e-01	1.040e+01	
3	7	9.600e-02	9.300e+00	
3	8	1.030e-01	1.080e+01	

Calib. Block Num.	WaveLen Index	Absorption	Scattering	

4	1	1.000e-01	1.000e+01	
4	2	1.000e-01	1.000e+01	
4	3	1.000e-01	1.000e+01	
4	4	1.000e-01	1.000e+01	
4	5	1.000e-01	1.000e+01	
4	6	1.000e-01	1.000e+01	
4	7	1.000e-01	1.000e+01	
4	8	1.000e-01	1.000e+01	



#DATA BEGINS
time	group	step	mark	flag	A-AC1	A-AC2	A-AC3	A-AC4	A-AC5	A-AC6	A-AC7	A-AC8	A-DC1	A-DC2	A-DC3	A-DC4	A-DC5	A-DC6	A-DC7	A-DC8	A-Ph1	A-Ph2	A-Ph3	A-Ph4	A-Ph5	A-Ph6	A-Ph7	A-Ph8	aux-1	aux-2	aux-3	aux-4	digaux	

77333.758	1	1	0	768	3718.11	14.5255	3543.65	1629.81	496.386	4964.46	5.36314	3.90129	5539.93	73.774	5174.66	2604.79	897.587	8625.8	59.3654	57.0048	80.646	300.554	255.765	258.457	260.524	256.621	252.958	144.829	8192	-8191	8192	8192	254	
77333.805	1	1	0	0	4551.29	4857.96	4144.27	12.6003	3575.18	1665.27	496.634	4908.41	6801.73	7929.27	6318.79	69.226	5176.65	2623.66	925.505	8484.35	80.487	268.383	79.782	234.770	256.077	259.454	261.153	255.399	8192	-8191	8192	8192	254	
77333.883	1	1	0	0	4581.1	4892.95	4208.98	0.928928	3550.42	1655.56	506.109	4921.11	6814.37	7913.56	6442.79	65.0625	5166.85	2629.23	910.962	8537.9	80.752	268.961	79.922	69.754	255.867	259.164	261.615	255.366	8192	-8191	8192	8192	254	
77333.930	1	1	0	0	4591.72	4953.13	4237.3	3.73375	3650.59	1637.55	532.518	4932.98	6799.21	7927.05	6458.57	66.7933	5233.15	2606.48	923.745	8535.81	80.403	268.458	78.894	83.372	256.023	260.436	260.662	256.997	8192	-8191	8192	8192	254	
77333.977	1	1	0	0	4533.49	4895.1	4252.66	4.31334	3541.69	1654.45	487.194	4907.23	6742.64	7940.91	6476.08	69.3029	5129.42	2612.83	913.212	8552.58	80.684	269.061	78.866	124.259	256.097	260.619	263.090	256.065	8192	-8191	8192	8192	254	
77334.023	1	1	0	0	4626.01	4814.89	4277.34	14.9251	3563.24	1657	514.2	5006.01	6813.42	7880.83	6520.73	64.6971	5189.92	2638.11	910.885	8655.27	80.494	268.787	79.494	298.170	255.223	259.379	261.690	255.937	8192	-8191	8192	8192	254	
77334.070	1	1	0	0	4656.15	4959.9	4307.61	5.30008	3596.24	1666.99	519.442	5029.69	6855.91	7929.06	6560.12	75.2885	5188.89	2638.52	916.995	8650.26	80.561	269.325	79.265	264.653	255.644	259.511	263.229	255.937	8192	-8191	8192	8192	254	
77334.117	1	1	0	0	4577.89	4938.22	4291.69	6.05908	3567.58	1630.08	503.095	4945.12	6817.17	7934.15	6561.55	70.0481	5185.67	2600.8	906.981	8531.14	79.893	268.821	79.149	216.545	256.297	259.195	262.358	255.619	8192	-8191	8192	8192	254	
77334.172	1	1	0	0	4589.9	4882.15	4286.16	5.16953	3554.38	1631.17	515.937	4957.88	6802	7910.38	6516	75.6346	5181.93	2595.53	913.798	8536.14	80.025	269.358	77.981	274.152	255.636	261.121	263.447	256.747	8192	-8191	8192	8192	254	
77334.219	1	1	0	0	4661.57	4941.6	4306.9	14.2605	3586.52	1688.48	499.938	4962.7	6852.74	7935.03	6598.19	74.0721	5213.11	2615.02	906.793	8624.34	81.008	268.334	78.883	255.996	256.443	258.829	263.165	255.964	8192	-8191	8192	8192	254	
77334.289	1	1	0	0	4644.62	4817.92	4326.26	4.31817	3563.9	1655.66	501.428	4990.97	6836.78	7938.88	6583.9	73	5166.92	2637.73	906.875	8658.46	80.487	268.990	78.904	319.950	255.778	260.787	264.378	255.722	8192	-8191	8192	8192	254	
77334.336	1	1	0	0	4667.47	4886.54	4295.98	9.33089	3596.27	1604.34	529.765	4921.06	6809.53	7955.52	6537.65	76.7885	5179.12	2581.46	917.356	8525.91	80.268	268.603	79.579	286.575	255.974	259.968	261.470	255.772	8192	-8191	8192	8192	254	
77334.383	1	1	0	0	4561.62	4942.98	4265.94	15.6577	3618.41	1645.72	479.022	4863.48	6797.59	7932.05	6552.42	73.8029	5231.62	2629.02	898.101	8558.32	80.697	268.983	79.783	249.797	255.886	258.384	259.828	256.065	8192	-8191	8192	8192	254	
77334.430	1	1	0	0	4569.73	4934.45	4305.68	7.24259	3524.29	1637.41	499.547	4977.55	6745.26	7987.58	6563.44	72.0769	5162.98	2625.19	912.764	8608.05	80.469	268.607	78.915	302.788	256.007	259.369	261.266	256.517	8192	-8191	8192	8192	254	
77334.477	1	1	0	0	4635.71	4895.03	4278.91	1.67833	3551.43	1620.17	507.539	4926.45	6811.12	7942.65	6585.31	72.6779	5149.96	2588.82	909.298	8552.26	80.862	269.887	79.754	26.939	256.267	260.815	260.539	256.558	8192	-8191	8192	8192	254	
77334.531	1	1	0	0	4610.18	4931.18	4384.03	7.14447	3593.42	1612.97	487.236	4924.66	6778.36	7944.99	6629.21	71.7356	5190.64	2593.51	898.231	8569.44	80.222	269.468	79.154	289.235	255.776	260.110	262.698	256.044	8192	-8191	8192	8192	254	
77334.531	1	1	0	0	4655.65	4905.43	4228.65	10.9175	3559.13	1629.89	497.169	5006.43	6850.11	7948.79	6549.13	71.0048	5175.12	2607.07	912.264	8648.69	81.050	269.348	78.967	265.206	255.916	260.059	263.266	255.793	8192	-8191	8192	8192	254	
77334.578	1	1	0	0	4602.2	4893.55	4321.43	5.75924	3518.78	1637.97	513.342	4950.39	6801.24	7952.21	6590.2	67.0577	5125.41	2608.94	906.481	8563.94	80.375	269.080	79.811	268.693	256.224	260.418	258.819	255.986	8192	-8191	8192	8192	254	
77334.648	1	1	1	0	4558.78	4989.62	4340.64	4.96178	3503.46	1649.68	492.806	4876.2	6777.79	7979.72	6602.72	69.5962	5113.69	2619.08	912.284	8524.2	81.146	268.843	79.707	266.500	255.585	259.201	264.052	255.749	8192	-8191	8192	8192	254	
77334.695	1	1	0	0	4635.32	4918.24	4336.84	6.62534	3522.14	1669.27	497.026	4893.61	6816.5	7919.92	6604.33	75.226	5113.69	2608.88	917.567	8523.25	80.307	268.901	78.469	233.595	255.717	260.633	262.982	256.329	8192	-8191	8192	8192	254	
77334.742	1	1	0	0	4522.72	4933.01	4319.93	9.07716	3585.53	1629.41	552.148	4949.97	6765.15	7980.05	6593.57	70.1779	5129.95	2608.39	940.024	8602.61	80.589	269.326	79.534	276.161	255.943	259.587	260.092	255.867	8192	-8191	8192	8192	254	
77334.789	1	1	0	0	4555.11	4946.75	4266.27	7.43438	3538.26	1615.24	489.67	5005.41	6765.35	7926.82	6551.15	69.7644	5116.82	2583.14	910.231	8599.02	80.209	268.750	79.109	314.293	255.553	257.853	263.545	256.653	8192	-8191	8192	8192	254	
77334.844	1	1	0	0	4569.41	4877.9	4311.02	6.3997	3580.54	1624.17	538.748	4943	6753.41	7848.15	6600.68	68.6298	5138.02	2608.38	930.524	8554.68	80.630	268.416	78.867	279.309	256.126	258.656	261.390	255.226	8192	-8191	8192	8192	254	
77334.891	1	1	0	0	4622.04	4764.08	4335.86	10.424	3453.72	1671.39	494.228	4855.13	6814.95	7838.17	6598.38	68.3125	5043.37	2605.35	911.904	8487.32	80.713	269.014	78.882	299.342	255.798	258.489	262.004	256.355	8192	-8191	8192	8192	254	
77334.938	1	1	0	0	4579.91	4850.23	4325.79	4.77885	3511	1647.92	519.022	4949.52	6788.37	7869.36	6619.04	67.1779	5104.3	2622.06	928.212	8539.1	80.854	268.622	79.638	341.247	256.220	260.453	259.826	255.276	8192	-8191	8192	8192	254	
77334.984	1	1	0	0	4645.28	4886.51	4328.12	4.62759	3517.06	1615.59	512.463	5106.11	6814.5	7945.73	6602.25	71.024	5124.34	2615.01	915.135	8825.33	81.058	268.477	79.629	337.754	256.072	259.176	263.436	256.491	8192	-8191	8192	8192	254	
77335.055	1	1	0	0	4669.89	5052.44	4263.81	7.37319	3579.93	1620.74	504.252	5099.7	6826.74	8065	6541.49	72.1731	5198.19	2621.05	899.428	8789.61	80.598	268.824	79.246	265.094	255.729	259.802	262.764	256.633	8192	-8191	8192	8192	254	
77335.102	1	1	0	0	4669.38	4993.99	4356.95	7.5713	3452.08	1635.22	492.461	4999.48	6846.78	8017.65	6608.77	67.0865	5088.02	2599.06	889.976	8742.55	80.947	269.525	78.825	263.245	256.784	259.576	262.655	256.259	8192	-8191	8192	8192	254	
77335.148	1	1	0	0	4552.56	4937.97	4348.17	8.38106	3621.82	1677.94	508.217	5073.68	6791.23	7979.55	6623.11	69.4663	5192.53	2645.69	902.596	8765.08	79.827	269.196	80.332	273.605	255.494	259.128	263.481	256.180	8192	-8191	8192	8192	254	
77335.203	1	1	0	0	4587.86	4876.08	4392.37	13.5725	3514.27	1659.81	513.251	5120.29	6783.27	7895.66	6633.18	79.7404	5108.75	2600.27	919.188	8750.24	80.907	268.261	79.230	266.497	255.867	259.366	264.380	255.692	8192	-8191	8192	8192	254	
77335.250	1	1	0	0	4595.48	4874	4342.84	2.66744	3481.3	1654.53	488.388	4847.69	6804.46	7920.6	6639.88	73.7212	5100.01	2632.51	915.351	8510.87	80.765	268.707	79.290	21.550	255.598	260.995	263.794	256.219	8192	-8191	8192	8192	254	
77335.297	1	1	0	0	4643.94	5046.49	4397.67	5.36037	3469.85	1623.43	491.727	4881.59	6811.89	8003.1	6671.46	82.9856	5068.74	2615.67	892.582	8465.89	81.429	268.067	79.071	230.905	256.218	259.998	266.547	256.802	8192	-8191	8192	8192	254	
77335.297	1	1	0	0	4541.63	4908.09	4310.88	10.7729	3539.65	1607.58	522.048	4969.23	6744.71	8033.8	6632.47	85.7596	5164.59	2613.61	961.889	8604.9	80.743	269.136	79.318	258.937	255.819	259.772	260.860	256.536	8192	-8191	8192	8192	254	
77335.344	1	1	0	0	4688.23	4851.9	4352.25	12.2299	3572.03	1642.93	527.211	5081.72	6873.02	7926.98	6695.56	140.606	5218.35	2663.55	994.51	8845.41	80.456	268.767	79.473	272.648	255.580	260.591	261.453	255.089	8192	-8191	8192	8192	254	
77335.414	1	1	0	0	4656.27	4942.2	4306.96	5.96813	3514.52	1579.73	503.621	4950.49	6907.55	7946.26	6606.89	107.389	5161.48	2622.52	946.894	8650.76	80.246	267.772	79.795	283.490	255.680	259.679	263.114	256.168	8192	-8191	8192	8192	254	
77335.461	1	1	0	0	4561.35	4813.53	4305.58	6.94325	3493.8	1655.46	497.163	4909.4	6819.14	7840.37	6633.36	105.082	5121.38	2638.79	954.404	8587.81	80.529	268.972	79.050	283.279	255.478	258.974	262.873	256.649	8192	-8191	8192	8192	254	
77335.516	1	1	0	0	4549.17	4814.35	4317.22	10.9261	3562.59	1608.16	492.684	4992.15	6796.12	7858.8	6607.22	96.4952	5156.07	2632.61	930.24	8714.68	80.912	268.790	79.509	260.655	255.582	259.091	262.639	256.491	8192	-8191	8192	8192	254	
77335.562	1	1	0	0	4595.51	4918.21	4275.26	14.7964	3509.7	1616.82	509.412	4919.1	6807.09	7930.25	6574.19	90.1442	5106.17	2623.01	924.976	8582.35	80.721	269.167	79.899	302.580	255.462	259.511	262.051	256.358	8192	-8191	8192	8192	254	
77335.609	1	1	0	0	4697.67	4887.67	4326.52	14.9813	3511.97	1652.79	481.392	4915.8	6864.91	7857.25	6626.86	81.3317	5115.13	2626.74	903.038	8572.49	80.507	268.591	79.219	247.347	255.887	258.628	260.323	256.410	8192	-8191	8192	8192	254	
77335.656	1	1	0	0	4599.04	4929.26	4352.06	13.8185	3491.2	1615.25	485.465	5089.27	6821.84	7836	6668.61	79.4087	5088.18	2637.64	949.346	8815.36	80.215	268.686	79.287	211.454	255.484	258.840	263.229	256.219	8192	-8191	8192	8192	254	
77335.703	1	1	0	0	4557.53	4889.85	4304.44	5.84362	3508.33	1659.86	514.464	5072.32	6790.87	7911.04	6587.17	78.7788	5149.56	2621.82	927.635	8774.6	80.532	269.047	79.408	247.910	256.531	259.508	263.967	256.112	8192	-8191	8192	8192	254	
77335.750	1	1	0	0	4631.29	4911.44	4343.93	3.62728	3514.17	1625.67	500.421	4945.78	6820.93	7916.05	6655.22	59.5721	5113.2	2582.32	913.322	8536.22	81.018	268.543	78.812	310.365	256.102	259.263	263.550	256.716	8192	-8191	8192	8192	254	
77335.805	1	1	0	0	4568.44	4879.21	4292.27	2.49462	3490	1598.47	503.938	5015.77	6761.96	7906.32	6631.31	64.4087	5075.39	2594.2	906.611	8634.55	81.189	268.525	79.062	231.277	256.212	259.427	261.300	255.899	8192	-8191	8192	8192	254	
77335.852	1	1	0	0	4631.38	4934.1	4303.29	5.41981	3514.74	1654.58	534.874	4972.07	6836.59	7921.94	6608.65	64.8462	5122.43	2621.41	934.683	8639.41	80.489	269.130	79.608	291.775	255.162	259.238	264.537	256.565	8192	-8191	8192	8192	254	
77335.922	1	1	0	0	4583.51	4839.39	4325.83	6.11903	3528.63	1648.33	498.032	4955.83	6805.3	7832.92	6602.09	67.649	5092.04	2633.13	888.885	8620.93	80.702	269.713	79.220	247.794	256.000	258.553	261.632	256.547	8192	-8191	8192	8192	254	
77335.969	1	1	0	0	4550.33	4866.15	4314.18	6.54311	3523.29	1633.85	491.382	5074.76	6772.04	7827.92	6590.18	64.6298	5093.19	2613.58	887.918	8787.41	81.143	269.079	80.164	348.244	256.302	260.658	261.397	256.505	8192	-8191	8192	8192	254	
77336.016	1	1	0	0	4593.22	4861.12	4395.28	3.82925	3499.39	1661.52	526.84	4945.04	6815.7	7825.55	6667.88	62.4135	5055.5	2607.45	896.538	8640.89	80.494	269.157	78.931	196.963	255.620	260.457	260.789	255.816	8192	-8191	8192	8192	254	
77336.062	1	1	0	0	4544.26	4861.6	4345.15	6.35622	3427.19	1671.83	512.766	4973.16	6792.2	7830.52	6625.8	65.9856	5044.16	2657.63	894.769	8546.17	81.336	268.842	78.775	295.351	256.928	259.191	261.759	256.676	8192	-8191	8192	8192	254	
77336.062	1	1	0	0	4569	4829.37	4273.37	8.3385	3524.05	1683.79	520.078	4963.06	6791.37	7796.39	6598.06	66.3173	5086.3	2626.55	915.346	8592.03	81.143	268.994	79.320	217.651	255.719	259.716	262.458	256.271	8192	-8191	8192	8192	254	
77336.109	1	1	0	0	4584.25	4835.94	4283.32	12.0091	3509.84	1644.85	484.994	4868.93	6819.52	7794.95	6592.84	62.226	5096.32	2616.42	888.572	8564.07	79.458	268.870	79.423	230.944	255.874	259.807	264.319	256.587	8192	-8191	8192	8192	254	
77336.164	1	1	0	0	4632.8	4852.14	4357.4	10.4197	3508.84	1639.58	501.251	4916.05	6832.59	7794.99	6618.17	63.0385	5106.29	2596.88	898.889	8491.55	80.853	269.656	78.964	305.304	255.109	259.782	263.317	256.221	8192	-8191	8192	8192	254	
77336.211	1	1	0	0	4554.13	4837.42	4375.42	11.8689	3486.4	1631.93	476.886	4890.84	6777.17	7800.03	6610.38	65.3798	5067.01	2618.49	882.163	8507.57	80.040	268.745	79.193	255.162	256.609	260.548	262.291	256.533	8192	-8191	8192	8192	254	
77336.281	1	1	0	0	4555.35	4764.26	4297.07	9.32397	3452.73	1665.91	519.785	4826.2	6791.74	7768.71	6619.26	57.625	5109.63	2611.35	907.293	8446.43	80.748	269.319	79.395	241.344	255.613	259.158	261.020	256.356	8192	-8191	8192	8192	254	
77336.328	1	1	0	0	4621.39	4895.07	4340.57	6.46327	3530.92	1637.26	482.059	4893.42	6844.86	7842.67	6604.67	59.2019	5140.54	2603	869.678	8508.54	80.848	269.013	79.512	245.615	255.802	258.759	263.388	255.563	8192	-8191	8192	8192	254	
77336.375	1	1	0	0	4630.23	4821.34	4322.06	5.99768	3517.54	1652.61	522.632	4943.55	6840.52	7807.09	6589.64	61.6394	5074.62	2598.84	912.087	8556.39	80.863	269.301	79.141	258.859	255.466	258.771	263.227	256.288	8192	-8191	8192	8192	254	
77336.422	1	1	0	0	4642.27	4889.63	4365.7	9.18721	3529.61	1640.75	528.846	4958.65	6812.2	7857.93	6586.74	59.5288	5087.2	2632.13	903.332	8590.94	80.705	268.627	79.046	253.375	255.952	259.064	263.488	255.173	8192	-8191	8192	8192	254	
77336.469	1	1	0	0	4643.57	4847.95	4370.75	4.36337	3542.62	1609.63	490.689	4882.5	6828.01	7753.12	6627.34	59.8317	5104.37	2600.58	888.409	8533.68	80.820	268.687	79.262	269.446	256.207	260.008	263.428	255.880	8192	-8191	8192	8192	254	
77336.523	1	1	0	0	4602.89	4868.6	4292.97	6.79251	3561.49	1626.89	511.565	4927.63	6813.5	7841.71	6564.81	59.2308	5130.26	2603.32	902.971	8514.64	80.167	268.034	78.910	277.337	256.185	260.169	259.397	255.634	8192	-8191	8192	8192	254	
77336.594	1	1	0	0	4573.02	4916.63	4347.78	7.07699	3562.51	1663.15	510.399	4909.65	6747.45	7903.68	6624.81	54.4904	5118.13	2600.1	901.635	8538.94	81.104	269.045	78.510	239.004	256.463	259.237	262.459	256.747	8192	-8191	8192	8192	254	
77336.641	1	1	0	0	4696.66	4844.61	4359.68	3.76091	3488.4	1626.64	496.599	4937.99	6839.76	7833.33	6650.76	63.125	5107.24	2610.75	892.452	8547.09	80.280	269.204	78.714	261.072	256.359	258.111	261.752	255.619	8192	-8191	8192	8192	254	
77336.688	1	1	0	0	4612.15	4949.03	4245.4	6.49698	3553.86	1651.75	514.136	4896.39	6831.07	7870.97	6569.43	61.2212	5119.15	2611.77	928.389	8515.76	80.549	267.879	78.197	302.507	255.833	260.363	263.258	255.941	8192	-8191	8192	8192	254	
77336.734	1	1	0	0	4635.71	4802.26	4360.5	6.70294	3582.62	1664.89	492.366	4946.4	6816.31	7734.35	6583.88	57.0913	5139.77	2615.58	894.269	8601.27	80.504	269.232	78.864	275.912	255.730	258.713	259.702	255.856	8192	-8191	8192	8192	254	
77336.781	1	1	0	0	4556.44	4871.46	4317.76	11.6404	3570.28	1662.3	500.802	4995.43	6759.68	7852.61	6577.04	59.2644	5173.16	2616.47	911.365	8551.11	81.342	268.844	79.327	317.169	255.093	259.342	262.075	256.170	8192	-8191	8192	8192	254	
77336.828	1	1	0	0	4622.35	4851.06	4298.88	2.95705	3607.07	1594.21	511.533	4873.43	6770.45	7801.31	6583.43	59.7163	5161.82	2597.48	895.505	8496.97	80.535	268.955	79.840	243.202	255.857	259.585	263.628	255.856	8192	-8191	8192	8192	254	
77336.828	1	1	0	0	4611.13	4926.88	4340.92	5.47652	3567.37	1657.31	508.378	4952.2	6796.05	7831.65	6617.24	61.601	5137.74	2613.01	905.163	8531.23	79.276	268.413	79.199	290.272	256.252	260.393	262.462	256.235	8192	-8191	8192	8192	254	
77336.883	1	1	0	0	4662.1	4840.15	4330.95	9.67214	3515.81	1665.76	518.597	4896.57	6823.07	7779.12	6568.52	63.0481	5107.31	2632.81	906.596	8530.78	80.522	269.390	79.638	279.695	255.504	259.421	262.267	256.529	8192	-8191	8192	8192	254	
77336.953	1	1	0	0	4614.84	4850.73	4287.37	8.59983	3586.88	1606.63	504.957	4881.88	6817.68	7820.26	6563.14	59.8942	5154.44	2590.67	906.303	8462.73	80.346	269.023	78.843	262.294	255.843	259.366	262.675	256.591	8192	-8191	8192	8192	254	
77337.000	1	1	0	0	4611.21	4870.85	4335.27	4.8742	3515.5	1672.45	486.82	4928.25	6784.74	7841.55	6608.92	58.6875	5118.04	2608.86	877.409	8514.19	80.474	269.682	79.397	131.119	255.727	259.227	264.487	256.083	8192	-8191	8192	8192	254	
