BOXY.EXE: ISS Imagent Data Acquisition Program Version 0.82
Ascii Record File

#ACQ INFORMATION
1  Detector Channels 
8  External MUX Channels 
4  Auxiliary Analog Channels 
5000  Waveform (CCF) Frequency (Hz)
4  Waveforms Skipped 
26  Waveforms Averaged 
1  Cycles Averaged 
8  Acquisitions per Waveform 
1  Auxiliary Digital Channels 

#Data Update Rate
20.8333  Update Rate (Hz) 
FALSE -- Use Phase Reference
FALSE -- Use Continuous Phase Reference
FALSE -- Use Intensity Reference
FALSE -- Use Continuous Intensity Reference

#FILE INFORMATION
TRUE -- External MUX Channel results are PARSED.
FALSE -- AC DC and Phase are NOT grouped.
TRUE -- Companion Program Settings File CREATED.
FALSE -- AC data not excluded
FALSE -- DC data not excluded
FALSE -- Phase data not excluded
FALSE -- Auxillary Chn. data not excluded
Tab delimiters

#CALIBRATION STATE
FALSE -- Waveform Calibration Values NOT applied.

#WAVELENGTH DATA
Wavelength Index	Wavelength	Comp1 ExtCoef	Comp2 ExtCoef	Comp3 ExtCoef	Comp4 ExtCoef	BackGround	Weight	

1	6.600e+02	1.486e+00	3.844e+00	1.000e+00	1.000e+00	1.890e-02	1.000e+00	
2	6.900e+02	2.315e+00	1.792e+00	1.000e+00	1.000e+00	2.180e-02	1.000e+00	
3	7.500e+02	1.000e+00	1.000e+00	1.000e+00	1.000e+00	3.010e-03	1.000e+00	
4	7.750e+02	1.000e+00	1.000e+00	1.000e+00	1.000e+00	3.240e-03	1.000e+00	
5	7.850e+02	1.000e+00	1.000e+00	1.000e+00	1.000e+00	1.660e-02	1.000e+00	
6	8.000e+02	1.000e+00	1.000e+00	1.000e+00	1.000e+00	1.480e-02	1.000e+00	
7	8.250e+02	1.000e+00	1.000e+00	1.000e+00	1.000e+00	1.620e-02	1.000e+00	
8	8.300e+02	1.000e+00	1.000e+00	1.000e+00	1.000e+00	2.620e-02	1.000e+00	


#AUX CALIBRATION VALUES
Val Type	aux-1	aux-2	aux-3	aux-4	

Term	0.0000e+00	0.0000e+00	0.0000e+00	0.0000e+00	
Factor	1.0000e+00	1.0000e+00	1.0000e+00	1.0000e+00	


#WF CALIBRATION VALUES
A = Detector Channel
Val Type	A-AC1	A-AC2	A-AC3	A-AC4	A-AC5	A-AC6	A-AC7	A-AC8	A-DC1	A-DC2	A-DC3	A-DC4	A-DC5	A-DC6	A-DC7	A-DC8	A-Ph1	A-Ph2	A-Ph3	A-Ph4	A-Ph5	A-Ph6	A-Ph7	A-Ph8	

Term	0.00000e+00	0.00000e+00	0.00000e+00	0.00000e+00	0.00000e+00	0.00000e+00	0.00000e+00	0.00000e+00	0.00000e+00	0.00000e+00	0.00000e+00	0.00000e+00	0.00000e+00	0.00000e+00	0.00000e+00	0.00000e+00	-1.05892e+02	-9.99249e+01	-2.86485e+02	-2.62799e+02	-2.45797e+02	-2.48632e+02	-7.72400e+01	-7.86612e+01	
Factor	3.48934e-02	2.88771e-02	2.23541e-02	4.58344e-02	3.11822e-02	3.92311e-02	3.80806e-02	2.80088e-02	4.70955e+01	8.07534e+01	3.66973e+01	1.04434e+02	6.45565e+01	3.94082e+01	9.13796e+01	5.49806e+01	X	X	X	X	X	X	X	X	



#DISTANCE SETTINGS
A = Detector Channel
A-1	A-2	A-3	A-4	A-5	A-6	A-7	A-8	

1.5000e+00	1.5000e+00	1.5000e+00	1.5000e+00	1.5000e+00	1.5000e+00	1.5000e+00	1.5000e+00	



#ADDITIONAL SIGNAL INFORMATION
A = Detector Channel
Info. Type	A-1	A-2	A-3	A-4	A-5	A-6	A-7	A-8	

cal. block. ind.	1	1	1	1	1	1	1	1	
wavelength ind.	0	1	2	3	4	5	6	7	
weight	1.0000e+00	1.0000e+00	1.0000e+00	1.0000e+00	1.0000e+00	1.0000e+00	1.0000e+00	1.0000e+00	


#CALIBRATION BLOCK OPTICAL PROPS
Calib. Block Num.	WaveLen Index	Absorption	Scattering	

1	1	1.080e-01	9.000e+00	
1	2	1.300e-01	1.070e+01	
1	3	1.130e-01	9.400e+00	
1	4	1.210e-01	1.000e+01	
1	5	1.080e-01	9.000e+00	
1	6	1.300e-01	1.070e+01	
1	7	1.150e-01	9.600e+00	
1	8	1.330e-01	1.090e+01	

Calib. Block Num.	WaveLen Index	Absorption	Scattering	

2	1	1.120e-01	4.400e+00	
2	2	1.200e-01	5.700e+00	
2	3	1.140e-01	4.600e+00	
2	4	1.160e-01	5.100e+00	
2	5	1.120e-01	4.400e+00	
2	6	1.200e-01	5.700e+00	
2	7	1.150e-01	4.800e+00	
2	8	1.210e-01	6.000e+00	

Calib. Block Num.	WaveLen Index	Absorption	Scattering	

3	1	9.300e-02	8.700e+00	
3	2	1.010e-01	1.040e+01	
3	3	9.500e-02	9.000e+00	
3	4	9.700e-02	9.600e+00	
3	5	9.300e-02	8.700e+00	
3	6	1.010e-01	1.040e+01	
3	7	9.600e-02	9.300e+00	
3	8	1.030e-01	1.080e+01	

Calib. Block Num.	WaveLen Index	Absorption	Scattering	

4	1	1.000e-01	1.000e+01	
4	2	1.000e-01	1.000e+01	
4	3	1.000e-01	1.000e+01	
4	4	1.000e-01	1.000e+01	
4	5	1.000e-01	1.000e+01	
4	6	1.000e-01	1.000e+01	
4	7	1.000e-01	1.000e+01	
4	8	1.000e-01	1.000e+01	



#DATA BEGINS
time	group	step	mark	flag	A-AC1	A-AC2	A-AC3	A-AC4	A-AC5	A-AC6	A-AC7	A-AC8	A-DC1	A-DC2	A-DC3	A-DC4	A-DC5	A-DC6	A-DC7	A-DC8	A-Ph1	A-Ph2	A-Ph3	A-Ph4	A-Ph5	A-Ph6	A-Ph7	A-Ph8	aux-1	aux-2	aux-3	aux-4	digaux	

77688.234	1	1	0	768	3666.01	6.52847	3487.17	1614.38	537.173	5094.45	1.8497	10.3162	5507.56	54.5	5072.57	2577.18	930.014	8719.29	48.1923	44.8846	189.127	22.479	3.478	7.508	10.524	3.787	134.125	191.652	8192	-8191	8192	8192	254	
77688.281	1	1	0	0	4587.33	4753.16	4180.35	5.39448	3488.54	1621.57	526.94	5042.78	6786	7684	6335.12	58.1346	5040.82	2573.43	929.716	8765.87	188.448	17.018	187.207	36.717	4.099	6.743	10.497	4.323	8192	-8191	8192	8192	254	
77688.359	1	1	0	0	4638.11	4802.47	4255.9	4.55485	3456.64	1634.08	544.039	5064.3	6783.08	7695.27	6420.54	53.6923	5025.84	2562.89	943.024	8731.38	188.087	17.150	187.992	143.879	2.824	7.614	9.146	3.496	8192	-8191	8192	8192	254	
77688.406	1	1	0	0	4631.59	4726.49	4310.34	8.60156	3540.15	1628.05	537.489	5056.07	6788.64	7621.07	6480.15	57.9327	5052.86	2586.82	937.178	8733.09	188.357	16.486	186.487	357.211	3.190	7.661	12.687	3.857	8192	-8191	8192	8192	254	
77688.453	1	1	0	0	4631.12	4735.39	4315.59	10.4868	3495.85	1633.44	529.906	5061.44	6786.3	7684.66	6448.5	53.9183	5053.89	2580.4	921.101	8738.95	188.204	16.352	187.827	19.522	3.653	6.995	10.780	3.702	8192	-8191	8192	8192	254	
77688.500	1	1	0	0	4608.23	4734.07	4285.66	8.19306	3477.75	1640.92	520.215	5013.9	6757.21	7626.65	6471.47	57.7788	4993	2576.83	916.644	8712.85	188.016	16.466	186.995	7.916	3.576	8.236	12.113	3.596	8192	-8191	8192	8192	254	
77688.547	1	1	0	0	4606.43	4795.97	4316.93	3.51061	3482.85	1622.77	518.886	4989.68	6749.97	7720.5	6526.44	51.8221	5036.87	2563.44	913.096	8658.9	188.354	16.402	186.508	68.504	3.797	7.573	13.357	4.133	8192	-8191	8192	8192	254	
77688.594	1	1	0	0	4604.41	4751.44	4278.52	7.40177	3415.89	1612.43	516.909	5077.08	6774.44	7706.7	6479.21	54.7885	5012.64	2579.28	915.457	8757.92	188.032	16.755	187.423	61.514	3.789	7.819	11.196	3.527	8192	-8191	8192	8192	254	
77688.648	1	1	0	0	4619.99	4756.57	4249.7	11.7604	3444.85	1607.18	524.529	5032.13	6762.54	7699.2	6512.15	53.4712	5007.12	2581.25	920.529	8721.61	188.423	17.041	186.694	342.800	4.021	7.461	6.748	3.659	8192	-8191	8192	8192	254	
77688.695	1	1	0	0	4583.65	4752.75	4238.21	6.48939	3514.36	1613.45	531.564	5004.68	6774.75	7706.43	6466.51	54.1635	5066.53	2585.19	934.721	8678.19	188.886	16.312	187.112	332.967	3.452	8.809	7.002	4.206	8192	-8191	8192	8192	254	
77688.766	1	1	0	0	4643.81	4748.12	4209.73	6.00474	3429.96	1614.25	544.937	5110.23	6836.62	7659.94	6475.8	54.3365	4987.1	2591.39	945.543	8769.5	188.469	16.744	188.106	30.844	3.166	6.996	10.903	3.795	8192	-8191	8192	8192	254	
77688.812	1	1	0	0	4611.4	4702.51	4325.37	7.27492	3457.75	1632.5	511.745	5018.02	6786.46	7581.6	6546.78	52.2885	5020.37	2570.61	925.88	8691.9	188.822	16.107	187.459	9.242	3.920	6.283	13.468	4.667	8192	-8191	8192	8192	254	
77688.859	1	1	0	0	4574.48	4694.1	4346.14	7.42052	3479.38	1634.51	543.222	4984.95	6724.13	7610.34	6562.3	53.8029	5053.2	2583.1	923.053	8744.16	188.272	16.258	187.460	22.818	3.397	7.367	9.333	3.856	8192	-8191	8192	8192	254	
77688.906	1	1	0	0	4580.98	4788.3	4236.37	9.54461	3519.86	1595.69	539.967	5041.45	6738.14	7710.79	6503.38	56.5385	5049.02	2559.73	931.365	8762.05	187.916	16.884	187.643	1.896	3.351	8.642	11.431	4.157	8192	-8191	8192	8192	254	
77688.953	1	1	0	0	4557.17	4723.37	4320.22	4.28931	3495.4	1636.24	525.756	5089.01	6725.46	7681.4	6539.19	61.5288	5057.26	2574.1	918.75	8790.7	188.366	15.996	188.078	4.574	3.527	6.626	9.826	3.586	8192	-8191	8192	8192	254	
77689.008	1	1	0	0	4613.59	4750.07	4338.92	10.4216	3463.99	1613.56	546.759	5033.51	6806.31	7684.02	6554.49	57.7019	5053.08	2576.42	952.803	8677.86	189.432	16.889	187.525	357.575	3.569	7.096	9.587	3.987	8192	-8191	8192	8192	254	
77689.008	1	1	0	0	4528	4828.76	4232.25	5.15976	3492.28	1585.87	502.481	4988.66	6695.93	7678.74	6527.89	51.5962	5024.25	2550.73	919.567	8708.55	188.310	16.715	187.192	328.005	3.428	6.855	11.153	3.654	8192	-8191	8192	8192	254	
77689.055	1	1	0	0	4552.57	4800.15	4300.16	5.94519	3501.14	1627.98	523.547	4998.84	6728.04	7697.36	6572.86	54.9519	5056.01	2578.68	916.115	8695.29	188.098	16.852	187.654	4.241	3.613	7.075	10.195	3.788	8192	-8191	8192	8192	254	
77689.102	1	1	1	0	4625.87	4796.52	4306.16	7.1902	3523.47	1650.44	516.306	5035.47	6799.39	7674.16	6509.3	52.2404	5059.49	2586.98	934.24	8715.05	188.805	17.441	187.340	39.939	3.712	8.384	11.093	4.405	8192	-8191	8192	8192	254	
77689.148	1	1	0	0	4583.29	4815.21	4320.63	4.35284	3461.36	1611.49	491.597	5040.6	6751.89	7695.18	6553.31	56.2981	5056	2567.87	922.558	8724.35	187.909	16.262	187.125	8.363	3.595	6.555	11.086	3.854	8192	-8191	8192	8192	254	
77689.219	1	1	0	0	4592.93	4798.5	4280.24	2.37529	3516.25	1633.22	522.466	5057.1	6764.62	7714.18	6520.03	53.9952	5069.5	2587.68	921.87	8750.32	188.252	17.333	187.454	7.013	4.362	7.958	10.261	4.169	8192	-8191	8192	8192	254	
77689.266	1	1	0	0	4579.86	4691.65	4238.68	5.59164	3465.95	1629.66	532.428	5052.06	6738.08	7621.7	6503.02	53.2308	5025.08	2557.1	944.803	8710.64	188.717	16.687	187.140	52.719	2.335	8.053	9.227	4.231	8192	-8191	8192	8192	254	
77689.320	1	1	0	0	4660.98	4798.84	4281.72	5.39993	3530.08	1626.53	534.159	5007.61	6828.21	7694.42	6543.28	53.3029	5063.57	2570.58	931.764	8706.23	188.253	16.441	187.220	5.919	2.998	7.109	9.101	3.772	8192	-8191	8192	8192	254	
77689.367	1	1	0	0	4561.58	4755.55	4336.18	5.98918	3512.79	1628.11	510.839	5039.1	6752.03	7677.17	6540.25	57.5144	5053.84	2588.25	902.885	8751.66	187.780	16.368	187.233	299.317	3.175	7.624	12.411	3.269	8192	-8191	8192	8192	254	
77689.414	1	1	0	0	4544.95	4846.2	4276.22	6.89971	3563.12	1657.16	530.667	5056.13	6710.99	7760.17	6519.58	57.6538	5073.21	2606.09	925.803	8711.82	188.776	16.847	186.190	4.992	3.913	6.492	11.933	3.719	8192	-8191	8192	8192	254	
77689.461	1	1	0	0	4604.29	4731.78	4322.38	14.1565	3497.23	1641.18	519.945	5059.95	6770.42	7637.38	6545.38	58.7452	5037.23	2578.16	926.928	8761.15	188.563	16.519	187.533	36.489	4.037	7.348	10.276	3.935	8192	-8191	8192	8192	254	
77689.531	1	1	0	0	4614.55	4724.89	4275.32	7.25666	3498.39	1657.96	508.198	5012.61	6773.43	7661.48	6546.9	55.1298	5020.18	2600.99	916.433	8749.43	188.250	16.442	187.740	39.892	3.750	9.241	10.033	4.800	8192	-8191	8192	8192	254	
77689.578	1	1	0	0	4593.71	4745.69	4325.5	2.19962	3484.5	1622.83	545.139	5060.46	6823.67	7666.98	6557.96	51.0481	5040.17	2572.57	922.88	8737.73	188.701	16.744	187.720	60.841	3.765	8.273	12.213	4.115	8192	-8191	8192	8192	254	
77689.633	1	1	0	0	4541.75	4721.11	4280.21	1.33957	3547.35	1656.79	565.727	5058.72	6728.79	7677.93	6546.78	53.6442	5080.2	2568.95	943.125	8725.55	188.695	16.109	187.598	43.127	3.823	7.056	11.076	3.629	8192	-8191	8192	8192	254	
77689.680	1	1	0	0	4576.63	4721.25	4278.59	4.97331	3436.38	1615.7	519.237	5048.3	6758.47	7628	6553.57	55.149	5031.87	2579.54	936.562	8708.95	188.568	17.067	187.352	169.336	4.263	7.604	10.950	3.155	8192	-8191	8192	8192	254	
77689.727	1	1	0	0	4546.15	4808.75	4286.71	2.32511	3485.95	1609.7	520.055	5059.4	6739.78	7700.87	6511.76	53.6827	5025.92	2570.58	912.202	8728.54	187.694	16.805	187.116	307.932	3.920	7.005	12.355	4.913	8192	-8191	8192	8192	254	
77689.773	1	1	0	0	4581.32	4670.32	4311.14	2.33618	3390.3	1646.34	514.377	4968.78	6757.99	7625.62	6502.67	55.101	4963.79	2580.35	920.236	8666.33	188.315	17.253	187.697	62.908	3.870	6.008	11.563	3.605	8192	-8191	8192	8192	254	
77689.773	1	1	0	0	4533.3	4684.72	4281.2	11.4273	3506.98	1630.21	529.42	5045.41	6711.25	7674.04	6538.1	56.6298	5038.26	2568.54	922.649	8672.99	188.613	17.135	187.272	49.343	4.111	6.711	12.977	3.954	8192	-8191	8192	8192	254	
77689.820	1	1	0	0	4565.12	4781.45	4308.42	15.7395	3453.68	1585.5	539.367	5050.51	6775.4	7674.2	6523.15	56.8029	5027.95	2553.69	920.26	8708.39	188.486	16.262	187.217	21.393	3.551	7.220	9.803	3.774	8192	-8191	8192	8192	254	
77689.891	1	1	0	0	4602.69	4785.41	4247.8	6.92481	3470.55	1610.22	515.002	5072.94	6805.63	7712.7	6472.72	55.3173	5012.75	2591.95	919.274	8715.25	189.094	16.378	187.325	8.294	3.037	8.120	12.439	3.834	8192	-8191	8192	8192	254	
77689.945	1	1	0	0	4565.61	4715.7	4275.19	9.22012	3469.17	1669.15	517.722	5095.85	6731.36	7640.18	6559.19	55.1683	5024.67	2593.74	921.029	8745.77	188.290	16.621	186.795	82.985	4.033	7.174	10.805	3.123	8192	-8191	8192	8192	254	
77689.992	1	1	0	0	4564.58	4719.4	4368.56	6.76061	3394.82	1637.62	498.604	5065.58	6737.54	7634.84	6565.15	55.0048	4973.66	2595.06	911.404	8719.13	188.588	15.684	187.037	26.424	3.722	7.514	7.532	3.641	8192	-8191	8192	8192	254	
77690.039	1	1	0	0	4572.68	4770.29	4318.64	4.19241	3544.28	1638.86	536.18	5038.67	6775.12	7706.76	6533.16	53.7308	5066.75	2575.54	925.168	8765.02	188.214	16.720	187.244	313.823	3.048	6.884	12.325	4.791	8192	-8191	8192	8192	254	
77690.086	1	1	0	0	4566.78	4788.99	4303.71	5.15316	3475.79	1621.37	515.634	4964.17	6750.51	7691.07	6572.99	52.6346	5001.51	2548.23	917.62	8679.58	189.000	15.767	187.130	5.124	3.198	6.198	10.999	3.399	8192	-8191	8192	8192	254	
77690.133	1	1	0	0	4617.08	4795.86	4278.18	2.7584	3473.77	1636.44	530.975	5028.21	6709.82	7724.09	6490.75	55.4904	5037.08	2584.51	929.341	8708.86	187.685	17.082	187.742	332.906	4.211	8.150	9.211	3.499	8192	-8191	8192	8192	254	
77690.180	1	1	0	0	4606.51	4761.88	4267.57	6.71509	3458.65	1639.71	529.951	4923.92	6759.35	7654.51	6530.61	55.0817	5013.12	2574.82	909.62	8646.71	188.344	16.901	187.373	31.324	3.405	7.365	9.670	3.811	8192	-8191	8192	8192	254	
77690.227	1	1	0	0	4603.64	4772.08	4351.08	7.9955	3483.24	1643.91	544.723	5015.62	6758.88	7668.68	6546.82	55.5817	5035.97	2579.52	932.149	8683.39	188.771	16.445	187.136	24.830	2.966	5.888	10.023	3.762	8192	-8191	8192	8192	254	
77690.305	1	1	0	0	4610.88	4748.48	4338.64	2.99451	3449.7	1602.3	538.701	5074.06	6766.82	7686.79	6560.87	53.0337	5049.22	2566.32	925.188	8722.13	188.690	16.634	188.124	45.706	3.915	7.591	9.311	3.290	8192	-8191	8192	8192	254	
77690.352	1	1	0	0	4560	4727.16	4327.04	7.06691	3457.42	1626.67	534.334	5018.98	6731.91	7642.5	6522.99	55.1538	5044.16	2562.93	931.26	8727.1	187.922	15.894	186.884	53.295	3.830	6.695	12.938	3.503	8192	-8191	8192	8192	254	
77690.398	1	1	0	0	4565.33	4745.58	4300.19	7.17317	3457.52	1611.23	516.121	4951.67	6743.98	7676	6562.08	53.9327	5000.25	2552.08	916.404	8716.5	188.605	15.482	187.398	41.853	3.228	6.582	9.306	4.293	8192	-8191	8192	8192	254	
77690.445	1	1	0	0	4585.94	4811.73	4331.25	6.81593	3499.88	1623.52	521.284	5007.81	6794.21	7695.43	6525.58	59.6923	5053.86	2576.51	927.317	8672.55	188.447	17.674	187.124	35.957	3.450	7.474	10.503	3.536	8192	-8191	8192	8192	254	
77690.492	1	1	0	0	4545.61	4774.11	4344.27	2.00391	3423.55	1655.3	538.221	5053.49	6732.53	7687.02	6535.09	58.5769	5022.22	2584.9	929.913	8648.63	187.878	17.255	186.762	74.867	4.203	6.587	10.116	3.771	8192	-8191	8192	8192	254	
77690.539	1	1	0	0	4633	4778.71	4277.62	7.40938	3540.11	1619.12	531.54	5011.12	6767.52	7727.38	6536.56	55.7356	5057.26	2579.66	925.245	8732.03	187.857	16.083	187.512	27.612	4.208	7.650	11.690	4.140	8192	-8191	8192	8192	254	
77690.539	1	1	0	0	4679.41	4727.96	4342.26	8.70421	3533.34	1611.39	526.026	5065.56	6825.6	7642.14	6526.8	55.4663	5055.07	2575.61	943.433	8764.38	188.889	16.765	186.541	348.157	2.991	6.995	11.310	4.306	8192	-8191	8192	8192	254	
77690.594	1	1	0	0	4580.71	4745.24	4303.85	5.43087	3541.09	1616.92	509.082	5065.41	6727.76	7708.59	6557.11	51.601	5060.73	2557.27	914.433	8747.68	188.848	17.018	188.064	343.594	3.579	8.946	12.295	3.365	8192	-8191	8192	8192	254	
77690.664	1	1	0	0	4487.33	4742.29	4239.59	6.5433	3460.75	1638.98	513.555	4994.63	6672.81	7678.54	6512.09	54.3942	4991.68	2587.04	920.962	8678.31	188.275	17.449	186.902	10.257	3.860	8.958	10.776	3.625	8192	-8191	8192	8192	254	
77690.711	1	1	0	0	4592.6	4713.28	4223.09	12.1042	3495.62	1624.65	523.704	4945.09	6743.52	7642.2	6471.84	56.7115	5066.83	2592.94	932.173	8640.85	188.732	17.426	187.128	26.168	4.221	6.935	10.532	3.850	8192	-8191	8192	8192	254	
77690.758	1	1	0	0	4562.93	4716.18	4320.59	5.43075	3465.24	1649.8	531.749	5012.7	6724.67	7678.78	6563.83	56.3413	5047.67	2586.88	933.13	8663.07	188.127	16.323	187.077	280.100	4.090	6.732	8.447	4.182	8192	-8191	8192	8192	254	
77690.805	1	1	0	0	4583.41	4736.64	4298.7	10.2672	3509.01	1630.41	512.73	5030.93	6728.51	7660.92	6543.02	58.3173	5051.46	2539.1	900.125	8709.51	188.659	17.484	187.237	40.125	3.490	6.772	10.018	3.965	8192	-8191	8192	8192	254	
77690.852	1	1	0	0	4624.77	4755.57	4246.2	3.87263	3469.03	1614.93	526.012	5000.58	6785.2	7668.37	6505.07	57.2596	4998.01	2578.58	924.971	8740.78	187.770	16.373	186.740	2.548	3.493	8.096	11.285	3.296	8192	-8191	8192	8192	254	
77690.898	1	1	0	0	4579.6	4800.3	4303.68	6.06848	3447.93	1611.09	537.744	5015.72	6737.95	7650.44	6533.88	56.6298	5020.53	2539.25	930.226	8748.17	189.415	16.657	187.541	1.056	3.862	7.224	11.056	3.224	8192	-8191	8192	8192	254	
77690.945	1	1	0	0	4598.98	4651.71	4260.73	8.20365	3521.5	1568.04	524.289	5067.18	6761.76	7595.51	6478.3	58.1587	5047.72	2571.53	910.067	8745.23	188.391	16.169	187.474	18.129	3.877	5.377	14.327	3.551	8192	-8191	8192	8192	254	
77691.000	1	1	0	0	4571.23	4737.43	4339.29	6.36195	3483.61	1631.46	527.584	5083.75	6709.49	7652.76	6536.98	55.6635	5043.83	2566.8	935.274	8742.92	187.537	16.449	187.849	347.018	3.376	7.755	9.790	2.873	8192	-8191	8192	8192	254	
77691.047	1	1	0	0	4687.06	4819.2	4252.16	4.46707	3467.71	1653.12	521.095	5071.21	6809.12	7681.72	6505.05	61.2212	5029.25	2592.28	928.827	8737.65	188.504	17.133	187.881	157.774	3.748	6.037	10.475	3.564	8192	-8191	8192	8192	254	
77691.094	1	1	0	0	4572.4	4750.98	4304.52	5.58776	3435.83	1597.26	505.582	5124.81	6735.91	7629.51	6546.39	56.476	4994.36	2578.59	914.495	8788.6	188.614	16.333	187.799	289.723	3.261	7.871	8.871	4.292	8192	-8191	8192	8192	254	
77691.164	1	1	0	0	4591.85	4811	4248.54	6.1054	3492.07	1637.96	527.182	4919.23	6720.16	7690.27	6516.19	56.2788	5046.64	2567.44	922.524	8681.73	188.371	17.317	187.577	25.743	2.849	7.526	7.872	3.857	8192	-8191	8192	8192	254	
77691.211	1	1	0	0	4617.24	4730.56	4324.27	3.01553	3533.92	1610.88	538.279	5003.54	6756.21	7650.38	6559.15	53.5433	5051.13	2580.54	912.418	8700.89	188.018	16.019	187.268	328.585	3.856	8.132	10.504	3.555	8192	-8191	8192	8192	254	
77691.266	1	1	0	0	4565.27	4796.19	4229.13	7.47322	3456.8	1613.99	530.356	4964.92	6748.26	7692.45	6468.22	56.6875	5006.41	2561.82	921.389	8645.17	189.018	15.773	187.719	34.446	3.598	8.129	12.056	3.842	8192	-8191	8192	8192	254	
77691.312	1	1	0	0	4677.94	4728.15	4337.14	10.2758	3478.7	1620.03	530.016	5054.19	6783.77	7631.28	6587.55	57.6827	5014.67	2573.35	917.712	8750.66	188.977	16.944	187.109	34.479	4.102	7.050	11.588	3.498	8192	-8191	8192	8192	254	
77691.312	1	1	0	0	4608.56	4729.67	4298.14	12.5545	3436.75	1605.9	510.084	5043.88	6782.51	7659.2	6547.76	55.851	5011.88	2547.34	924.221	8771.33	188.077	16.739	186.944	347.369	3.439	8.670	11.468	4.057	8192	-8191	8192	8192	254	
77691.359	1	1	0	0	4596.39	4792.61	4295.86	7.68408	3471.53	1623.79	556.115	5155.58	6790.71	7695.15	6516.5	53.7885	5050.4	2573.86	931.471	8798.85	187.478	16.441	188.103	5.225	4.140	6.894	9.069	3.946	8192	-8191	8192	8192	254	
77691.430	1	1	0	0	4519.29	4751.09	4300.64	5.41656	3483.67	1675.21	519.729	4996.47	6737.3	7656.17	6513.94	53.3269	5027.11	2628.44	929.606	8699.92	188.295	16.722	187.026	35.141	3.671	6.944	9.655	4.077	8192	-8191	8192	8192	254	
77691.477	1	1	0	0	4551.43	4703.72	4287.96	4.94509	3438.76	1660.42	519.204	4986.56	6762.98	7632.6	6517.06	56.3365	5005.02	2596.03	921.678	8711.23	188.333	16.815	186.833	178.902	3.110	6.973	10.629	4.697	8192	-8191	8192	8192	254	
77691.523	1	1	0	0	4532.68	4717.96	4316.09	16.4273	3462.11	1629.77	501.279	5053.77	6742.1	7642.69	6570.58	52.4471	5023.41	2580.59	919.361	8688.77	188.347	17.220	186.668	0.910	3.769	6.797	9.991	3.758	8192	-8191	8192	8192	254	
77691.570	1	1	0	0	4614.83	4758.45	4355.68	6.28527	3470.6	1592.99	532.962	5047.11	6763.76	7634.2	6556.3	56.7788	5034.74	2573.25	923.236	8719.85	188.201	16.761	188.047	15.603	3.531	6.592	10.745	4.689	8192	-8191	8192	8192	254	
