BOXY.EXE: ISS Imagent Data Acquisition Program Version 0.82
Ascii Record File

#ACQ INFORMATION
1  Detector Channels 
8  External MUX Channels 
4  Auxiliary Analog Channels 
5000  Waveform (CCF) Frequency (Hz)
4  Waveforms Skipped 
26  Waveforms Averaged 
1  Cycles Averaged 
8  Acquisitions per Waveform 
1  Auxiliary Digital Channels 

#Data Update Rate
20.8333  Update Rate (Hz) 
FALSE -- Use Phase Reference
FALSE -- Use Continuous Phase Reference
FALSE -- Use Intensity Reference
FALSE -- Use Continuous Intensity Reference

#FILE INFORMATION
TRUE -- External MUX Channel results are PARSED.
FALSE -- AC DC and Phase are NOT grouped.
TRUE -- Companion Program Settings File CREATED.
FALSE -- AC data not excluded
FALSE -- DC data not excluded
FALSE -- Phase data not excluded
FALSE -- Auxillary Chn. data not excluded
Tab delimiters

#CALIBRATION STATE
FALSE -- Waveform Calibration Values NOT applied.

#WAVELENGTH DATA
Wavelength Index	Wavelength	Comp1 ExtCoef	Comp2 ExtCoef	Comp3 ExtCoef	Comp4 ExtCoef	BackGround	Weight	

1	6.600e+02	1.486e+00	3.844e+00	1.000e+00	1.000e+00	1.890e-02	1.000e+00	
2	6.900e+02	2.315e+00	1.792e+00	1.000e+00	1.000e+00	2.180e-02	1.000e+00	
3	7.500e+02	1.000e+00	1.000e+00	1.000e+00	1.000e+00	3.010e-03	1.000e+00	
4	7.750e+02	1.000e+00	1.000e+00	1.000e+00	1.000e+00	3.240e-03	1.000e+00	
5	7.850e+02	1.000e+00	1.000e+00	1.000e+00	1.000e+00	1.660e-02	1.000e+00	
6	8.000e+02	1.000e+00	1.000e+00	1.000e+00	1.000e+00	1.480e-02	1.000e+00	
7	8.250e+02	1.000e+00	1.000e+00	1.000e+00	1.000e+00	1.620e-02	1.000e+00	
8	8.300e+02	1.000e+00	1.000e+00	1.000e+00	1.000e+00	2.620e-02	1.000e+00	


#AUX CALIBRATION VALUES
Val Type	aux-1	aux-2	aux-3	aux-4	

Term	0.0000e+00	0.0000e+00	0.0000e+00	0.0000e+00	
Factor	1.0000e+00	1.0000e+00	1.0000e+00	1.0000e+00	


#WF CALIBRATION VALUES
A = Detector Channel
Val Type	A-AC1	A-AC2	A-AC3	A-AC4	A-AC5	A-AC6	A-AC7	A-AC8	A-DC1	A-DC2	A-DC3	A-DC4	A-DC5	A-DC6	A-DC7	A-DC8	A-Ph1	A-Ph2	A-Ph3	A-Ph4	A-Ph5	A-Ph6	A-Ph7	A-Ph8	

Term	0.00000e+00	0.00000e+00	0.00000e+00	0.00000e+00	0.00000e+00	0.00000e+00	0.00000e+00	0.00000e+00	0.00000e+00	0.00000e+00	0.00000e+00	0.00000e+00	0.00000e+00	0.00000e+00	0.00000e+00	0.00000e+00	-1.05892e+02	-9.99249e+01	-2.86485e+02	-2.62799e+02	-2.45797e+02	-2.48632e+02	-7.72400e+01	-7.86612e+01	
Factor	3.48934e-02	2.88771e-02	2.23541e-02	4.58344e-02	3.11822e-02	3.92311e-02	3.80806e-02	2.80088e-02	4.70955e+01	8.07534e+01	3.66973e+01	1.04434e+02	6.45565e+01	3.94082e+01	9.13796e+01	5.49806e+01	X	X	X	X	X	X	X	X	



#DISTANCE SETTINGS
A = Detector Channel
A-1	A-2	A-3	A-4	A-5	A-6	A-7	A-8	

1.5000e+00	1.5000e+00	1.5000e+00	1.5000e+00	1.5000e+00	1.5000e+00	1.5000e+00	1.5000e+00	



#ADDITIONAL SIGNAL INFORMATION
A = Detector Channel
Info. Type	A-1	A-2	A-3	A-4	A-5	A-6	A-7	A-8	

cal. block. ind.	1	1	1	1	1	1	1	1	
wavelength ind.	0	1	2	3	4	5	6	7	
weight	1.0000e+00	1.0000e+00	1.0000e+00	1.0000e+00	1.0000e+00	1.0000e+00	1.0000e+00	1.0000e+00	


#CALIBRATION BLOCK OPTICAL PROPS
Calib. Block Num.	WaveLen Index	Absorption	Scattering	

1	1	1.080e-01	9.000e+00	
1	2	1.300e-01	1.070e+01	
1	3	1.130e-01	9.400e+00	
1	4	1.210e-01	1.000e+01	
1	5	1.080e-01	9.000e+00	
1	6	1.300e-01	1.070e+01	
1	7	1.150e-01	9.600e+00	
1	8	1.330e-01	1.090e+01	

Calib. Block Num.	WaveLen Index	Absorption	Scattering	

2	1	1.120e-01	4.400e+00	
2	2	1.200e-01	5.700e+00	
2	3	1.140e-01	4.600e+00	
2	4	1.160e-01	5.100e+00	
2	5	1.120e-01	4.400e+00	
2	6	1.200e-01	5.700e+00	
2	7	1.150e-01	4.800e+00	
2	8	1.210e-01	6.000e+00	

Calib. Block Num.	WaveLen Index	Absorption	Scattering	

3	1	9.300e-02	8.700e+00	
3	2	1.010e-01	1.040e+01	
3	3	9.500e-02	9.000e+00	
3	4	9.700e-02	9.600e+00	
3	5	9.300e-02	8.700e+00	
3	6	1.010e-01	1.040e+01	
3	7	9.600e-02	9.300e+00	
3	8	1.030e-01	1.080e+01	

Calib. Block Num.	WaveLen Index	Absorption	Scattering	

4	1	1.000e-01	1.000e+01	
4	2	1.000e-01	1.000e+01	
4	3	1.000e-01	1.000e+01	
4	4	1.000e-01	1.000e+01	
4	5	1.000e-01	1.000e+01	
4	6	1.000e-01	1.000e+01	
4	7	1.000e-01	1.000e+01	
4	8	1.000e-01	1.000e+01	



#DATA BEGINS
time	group	step	mark	flag	A-AC1	A-AC2	A-AC3	A-AC4	A-AC5	A-AC6	A-AC7	A-AC8	A-DC1	A-DC2	A-DC3	A-DC4	A-DC5	A-DC6	A-DC7	A-DC8	A-Ph1	A-Ph2	A-Ph3	A-Ph4	A-Ph5	A-Ph6	A-Ph7	A-Ph8	aux-1	aux-2	aux-3	aux-4	digaux	

77626.695	1	1	0	768	4493.1	4277.1	9.00696	3367.13	1614.89	509.857	4786.09	5.20019	7274.32	6449.85	51.9087	4925.38	2552.02	884.99	8331.62	42.7019	208.900	19.629	200.770	196.087	200.084	204.184	196.195	34.697	8192	-8191	8192	8192	254	
77626.742	1	1	0	0	4498.79	4714.12	4249.62	10.7033	3534.27	1596.42	483.362	4799.86	6589.23	7531.06	6411.16	53.4327	5000.88	2535.16	888.418	8368.27	21.062	209.508	18.950	192.049	195.857	199.376	203.945	196.743	8192	-8191	8192	8192	254	
77626.797	1	1	0	0	4489.79	4642.59	4234.38	11.2129	3374.01	1604.36	500.377	4873.74	6630.94	7529.67	6399.88	51.8125	4934.95	2534.3	880.774	8407.79	20.795	208.484	19.229	205.934	195.460	199.843	202.225	196.409	8192	-8191	8192	8192	254	
77626.844	1	1	0	0	4495.5	4692.64	4263.08	12.1666	3436.35	1603.34	506.69	4976.67	6609.93	7630.85	6438.32	53.4279	4955.98	2517.93	864.861	8560.44	20.436	209.370	19.937	228.227	196.097	199.276	204.414	196.921	8192	-8191	8192	8192	254	
77626.914	1	1	0	0	4454.21	4719.32	4239.53	3.40278	3466.62	1639.51	499.026	4993.7	6616.1	7618.5	6439	52.625	4969.74	2553.16	896.139	8649.29	20.780	208.869	19.116	198.614	196.258	200.331	203.186	195.718	8192	-8191	8192	8192	254	
77626.961	1	1	0	0	4574.05	4714.07	4330.07	3.29466	3479.87	1617.63	501.505	5067.96	6677.01	7586.46	6541.05	55.9663	5050.16	2571.66	887.226	8762.15	21.432	209.272	19.143	236.738	195.472	199.616	200.546	195.887	8192	-8191	8192	8192	254	
77627.008	1	1	0	0	4587.71	4827.93	4242.37	3.84107	3470.36	1631.83	485.691	5050.61	6756.24	7712.31	6503.11	55.9279	5014.08	2535.74	875.192	8809.44	20.435	208.925	19.074	205.230	197.156	201.209	202.556	195.727	8192	-8191	8192	8192	254	
77627.055	1	1	0	0	4562.73	4718.1	4281.25	5.41319	3452.71	1591.76	512.318	4965.15	6743.59	7624.56	6495.24	57.1779	4998.96	2578.45	901.5	8703.83	21.203	208.305	20.336	204.876	195.789	200.734	203.146	196.864	8192	-8191	8192	8192	254	
77627.109	1	1	0	0	4534.04	4643.15	4268.25	3.87314	3449.05	1598.51	504.258	4974.31	6678.59	7560.02	6517.63	56.6587	5039.28	2569.84	882.803	8602.85	21.150	208.763	19.415	239.278	196.139	200.402	205.212	196.832	8192	-8191	8192	8192	254	
77627.156	1	1	0	0	4444.76	4727.14	4287.11	3.38234	3487.63	1619.49	515.921	4997.68	6681.18	7685.5	6491.5	57.4519	5044.31	2559.41	901.072	8546.49	20.276	209.032	19.635	68.903	195.583	199.258	203.619	196.380	8192	-8191	8192	8192	254	
77627.203	1	1	0	0	4555.22	4779.31	4332.95	7.67103	3467.67	1663.34	493.402	4911.62	6728.83	7724.61	6543.54	56.0865	5014.85	2581.33	895.279	8529.16	20.475	209.595	19.601	170.935	195.996	201.105	201.300	196.964	8192	-8191	8192	8192	254	
77627.250	1	1	0	0	4499.67	4781.21	4235.08	7.78504	3448.12	1646.63	503.957	4923.06	6635.6	7714.45	6466.77	57.9712	5004.72	2590.34	877.841	8580.78	21.689	209.292	19.751	194.148	196.041	200.605	201.406	197.184	8192	-8191	8192	8192	254	
77627.320	1	1	0	0	4583.35	4782.6	4271.4	4.16703	3425.15	1664.05	548.671	5005.27	6718.22	7700.26	6503.18	50.1106	4974.82	2600.79	911.106	8661.33	20.846	208.314	19.385	232.836	196.569	199.841	202.590	195.668	8192	-8191	8192	8192	254	
77627.367	1	1	0	0	4544.09	4783.17	4233.37	7.8708	3517.69	1618.66	531.194	5014.56	6692.15	7694	6458.61	56.6106	5036.6	2569.28	917.423	8632.78	20.577	209.473	18.860	203.463	196.495	199.486	203.109	196.039	8192	-8191	8192	8192	254	
77627.414	1	1	0	0	4485.32	4820.98	4288.48	2.42146	3415.58	1654.76	528.484	5017.63	6679.72	7695.58	6504.39	53.7788	4993.09	2570.29	935.692	8677.11	20.976	209.290	19.638	249.202	196.310	199.787	204.739	197.119	8192	-8191	8192	8192	254	
77627.469	1	1	0	0	4521.58	4737.38	4273.76	2.57802	3474.63	1598.19	516.958	4941.93	6708.99	7697.43	6525.17	58.7067	4994.82	2541.31	904.447	8611.98	20.398	209.889	20.153	115.890	196.586	199.013	203.714	196.571	8192	-8191	8192	8192	254	
77627.469	1	1	0	0	4539.76	4776.1	4238.75	5.58686	3413.28	1608.32	504.545	4935.32	6690.79	7666.24	6473.04	56.1683	4974.57	2574.7	880.995	8639.16	20.571	209.204	19.368	200.823	196.629	199.858	205.306	197.341	8192	-8191	8192	8192	254	
77627.516	1	1	0	0	4588.01	4726.84	4206.83	2.92929	3504.08	1647.82	525.838	4925.76	6710.99	7650.71	6493.75	56.0962	5025.3	2582.82	899.048	8589.2	21.523	209.576	18.642	233.141	196.273	199.619	204.886	196.627	8192	-8191	8192	8192	254	
77627.562	1	1	0	0	4488.26	4711	4217.84	9.50994	3468.72	1638	519.179	5063.35	6663.1	7660.88	6493.06	57.1538	5045.11	2574.29	898.476	8659.39	21.003	209.300	19.483	212.862	196.668	199.126	203.978	196.415	8192	-8191	8192	8192	254	
77627.609	1	1	0	0	4505.02	4786.07	4244.76	2.48761	3483.16	1594.31	523.171	5019.56	6703.84	7739.28	6495.16	57.0721	5007.15	2552.07	901.101	8638.98	21.055	208.690	19.144	301.845	196.375	200.038	202.676	196.782	8192	-8191	8192	8192	254	
77627.680	1	1	0	0	4556.93	4749.05	4271.86	9.50158	3517.28	1638.34	511.883	5029.2	6739.12	7658.48	6506.52	53.8173	5022.56	2571.56	904.053	8706.71	21.132	209.304	19.716	234.599	196.556	199.959	205.022	196.585	8192	-8191	8192	8192	254	
77627.727	1	1	0	0	4563.52	4792.43	4262.62	9.57928	3514.83	1629.54	490.958	5000.6	6715.62	7725.82	6454.69	54.875	5034.05	2559.5	893.644	8722.9	21.051	210.291	19.368	218.627	195.094	199.298	200.865	196.162	8192	-8191	8192	8192	254	
77627.773	1	1	0	0	4497.39	4692.51	4300.45	4.81157	3441.51	1641.23	512.682	4988.93	6681.92	7648.63	6489.03	55.1346	4995.25	2580.91	891.159	8649.9	21.235	210.155	20.095	72.748	196.231	200.312	204.419	197.346	8192	-8191	8192	8192	254	
77627.828	1	1	0	0	4577.12	4707.36	4208.97	6.24065	3436	1604.3	520.278	5061.05	6746.37	7620.52	6458.04	50.0962	5007.61	2546.66	895.375	8690.42	20.697	209.059	19.204	235.206	196.682	200.072	202.630	196.943	8192	-8191	8192	8192	254	
77627.875	1	1	0	0	4537.66	4755.63	4267.42	11.4178	3473.49	1637.49	507.834	4981.13	6724.19	7694.66	6530.56	53.9663	5012.15	2575.24	900.582	8648.26	20.215	209.336	20.292	282.436	196.231	201.496	201.249	197.067	8192	-8191	8192	8192	254	
77627.922	1	1	0	0	4525.47	4760.02	4216.72	5.69763	3475.57	1627.91	520.235	4988.96	6710.22	7676.55	6447.14	55.2163	5011.21	2551.06	902.293	8668.04	21.187	209.283	19.352	194.431	196.904	200.800	201.102	197.036	8192	-8191	8192	8192	254	
77627.969	1	1	1	0	4582.05	4758.55	4237.54	12.9127	3505.58	1614.67	505.821	4975.15	6708.47	7652.67	6476.25	53.5433	5040.25	2551.01	892.173	8668.45	20.909	209.587	19.469	224.803	196.691	200.254	202.405	196.763	8192	-8191	8192	8192	254	
77628.016	1	1	0	0	4502.27	4796.03	4310.09	8.58179	3413.27	1622.32	518.35	5065.05	6671.91	7699.51	6517.26	52.0288	4983.12	2568.61	912.24	8719.37	20.656	208.555	19.917	218.580	196.372	200.300	199.468	197.679	8192	-8191	8192	8192	254	
77628.086	1	1	0	0	4553.45	4662	4223.67	8.65153	3430.2	1613.11	538.49	5059.73	6694.18	7626.66	6469.39	54.0385	5016.88	2553.68	902.5	8705.01	21.095	209.139	19.719	239.343	196.508	200.163	202.861	196.680	8192	-8191	8192	8192	254	
77628.133	1	1	0	0	4478.31	4757.52	4286.83	5.16741	3482.21	1625.82	497.831	5002.02	6650.18	7677.77	6542.15	57.4087	4994.91	2579.07	888.361	8664.75	20.733	209.198	20.211	184.859	196.452	199.731	204.423	195.999	8192	-8191	8192	8192	254	
77628.188	1	1	0	0	4494.54	4676.57	4287.41	12.8108	3544.63	1626.8	514.556	5001.5	6666.44	7648.56	6508.65	59.1058	5043.77	2564.78	907.846	8676.55	20.723	209.926	19.055	218.308	196.822	200.445	201.167	196.538	8192	-8191	8192	8192	254	
77628.234	1	1	0	0	4583.69	4741.15	4317.34	3.79687	3421.52	1612.26	497.321	5027.02	6706.13	7674.23	6491.68	50.9567	4984.71	2543.38	898.519	8697.36	21.130	209.270	19.646	211.225	196.009	199.781	202.639	196.926	8192	-8191	8192	8192	254	
77628.234	1	1	0	0	4541.19	4682.12	4244.61	5.28538	3452.29	1653.22	529.354	5026.32	6699.37	7596.61	6463.07	57.9615	4988.54	2561.78	909.053	8666.38	21.128	208.694	20.034	233.318	196.229	198.553	200.336	197.343	8192	-8191	8192	8192	254	
77628.281	1	1	0	0	4484.04	4713.99	4297.31	6.99815	3489.09	1645.05	516.894	4986.16	6663.98	7692.33	6540.09	54.4471	5041.07	2582.26	898.188	8639.52	20.972	209.511	18.987	223.570	196.728	199.647	205.703	196.720	8192	-8191	8192	8192	254	
77628.352	1	1	0	0	4531.81	4799.76	4310.54	7.3761	3415.2	1673.48	484.749	4991.36	6688.72	7697	6487.59	54.3606	4993.2	2583.98	890.298	8686.97	21.050	208.405	19.178	220.170	196.607	199.331	203.305	196.151	8192	-8191	8192	8192	254	
77628.398	1	1	0	0	4602.92	4797.41	4303.19	6.53113	3439.73	1650.29	493.663	4959.52	6723.78	7726.84	6547.09	54.8846	4997.62	2583.05	895.957	8629.8	20.694	208.122	19.539	175.319	196.735	200.370	202.670	196.863	8192	-8191	8192	8192	254	
77628.453	1	1	0	0	4575.75	4779.5	4278.19	1.94463	3493.25	1584.4	488.511	5013.06	6719.28	7685.99	6497.64	51.3702	4991.24	2529.64	891.889	8689.43	20.968	209.579	19.701	243.314	196.607	199.826	202.856	197.539	8192	-8191	8192	8192	254	
77628.500	1	1	0	0	4587.43	4759.6	4220.57	4.16085	3405.85	1597.18	518.427	5007.98	6707.27	7684.01	6464.37	57.1202	4951.35	2549.74	912.413	8647.19	21.535	208.951	19.923	270.739	196.238	200.382	202.343	196.544	8192	-8191	8192	8192	254	
77628.547	1	1	0	0	4563.03	4712.98	4198.5	7.26036	3428.89	1629.85	503.904	4992.02	6685.46	7690.44	6480.36	49.6923	5003.09	2602.02	894.971	8652.81	21.284	209.489	19.409	218.587	196.938	200.807	203.343	196.928	8192	-8191	8192	8192	254	
77628.594	1	1	0	0	4602.58	4741.79	4333.96	2.17689	3433.95	1620.87	511.858	5009.14	6725.2	7652.31	6510.11	54.3413	4998.16	2546.4	907.99	8646.38	20.885	208.900	20.098	221.311	196.313	199.435	203.105	197.166	8192	-8191	8192	8192	254	
77628.641	1	1	0	0	4547.73	4740.61	4377.28	3.32086	3429.53	1651.5	504.778	4989.59	6686.88	7674.61	6568.23	47.7644	5025.45	2576.9	895.058	8685.93	21.303	208.846	20.422	239.963	196.483	198.860	203.986	196.817	8192	-8191	8192	8192	254	
77628.688	1	1	0	0	4549.8	4738.46	4209.49	4.91644	3476.78	1645.33	505.098	4954.63	6684.67	7640.75	6434.25	57.5529	4989.39	2552.82	884.558	8625.33	21.229	208.911	19.089	150.761	196.004	200.449	201.432	196.975	8192	-8191	8192	8192	254	
77628.758	1	1	0	0	4541.76	4782.62	4297.76	5.38264	3515.92	1608.94	513.821	5018.63	6667.61	7655.58	6492.83	50.6442	5023.62	2538.7	896.654	8659.85	20.314	208.679	20.037	273.537	196.482	200.675	201.575	195.944	8192	-8191	8192	8192	254	
77628.812	1	1	0	0	4495.55	4781.97	4317.41	3.89109	3510.65	1626	523.535	4976.28	6700.85	7673.39	6484.95	52.5673	5053.45	2553.6	897.173	8625.64	20.481	209.130	19.967	249.100	195.804	199.572	201.555	196.590	8192	-8191	8192	8192	254	
77628.859	1	1	0	0	4549.47	4724.13	4247.11	4.6599	3484.43	1653.94	519.33	4969.63	6713.21	7662	6477.5	55.8365	5013.37	2573.8	905.702	8648.75	20.423	209.742	19.599	205.668	196.289	199.720	203.592	196.127	8192	-8191	8192	8192	254	
77628.906	1	1	0	0	4526.74	4714.23	4262.74	8.51658	3491.14	1634.51	503.345	5021.58	6702.3	7626.76	6488.43	54.0433	5025.61	2578.08	885.226	8715.19	20.167	209.168	20.779	151.589	196.030	199.640	203.986	197.598	8192	-8191	8192	8192	254	
77628.953	1	1	0	0	4511.7	4697.53	4268.98	5.50215	3540.02	1631.52	516.744	5014.48	6652.09	7607.41	6462.42	54.774	5055.29	2566.14	887.875	8694.33	21.203	209.336	19.850	191.433	196.348	199.411	203.641	196.274	8192	-8191	8192	8192	254	
77629.000	1	1	0	0	4599.85	4727.66	4301.31	7.79526	3462.34	1608.27	498.444	4974.87	6706.82	7682	6520.32	54.4615	5021.84	2557.76	896.755	8648.14	21.445	208.682	19.646	184.943	196.642	199.896	200.605	196.977	8192	-8191	8192	8192	254	
77629.000	1	1	0	0	4552.88	4762.64	4231.81	7.15615	3404.15	1607.31	495.03	5021.57	6705.65	7623.04	6467.48	51.7981	4983.62	2566.29	885.029	8686.53	20.963	208.480	19.861	245.037	196.115	201.122	202.217	197.024	8192	-8191	8192	8192	254	
77629.047	1	1	0	0	4621.45	4763.19	4329.73	3.87832	3573.56	1639.64	517.981	4925.8	6746.55	7645.31	6514.11	54.0529	5074.28	2564.22	898.365	8677.57	20.579	209.993	19.778	249.070	195.113	199.228	203.239	196.410	8192	-8191	8192	8192	254	
77629.102	1	1	0	0	4541.72	4784.7	4305.8	6.3887	3488.39	1659.75	493.719	5020.29	6690.54	7677.25	6497.42	58.3029	5006.16	2591.57	888.827	8665.24	21.113	209.963	19.145	219.833	195.934	198.718	201.155	197.168	8192	-8191	8192	8192	254	
77629.148	1	1	0	0	4529.45	4748.75	4277.22	5.34094	3450.46	1594.14	532.788	4998.41	6704.32	7697.06	6483.51	49.5673	4995.7	2534.13	911.808	8638.33	19.974	209.772	19.843	218.521	196.378	200.220	199.226	196.683	8192	-8191	8192	8192	254	
77629.219	1	1	0	0	4570.5	4725.54	4283.63	6.8835	3439.55	1614.67	509.934	5040	6689.37	7663.32	6473.54	53.8029	4983.52	2559.36	900.5	8666.37	20.849	209.776	19.790	201.147	196.442	199.054	202.090	196.812	8192	-8191	8192	8192	254	
77629.266	1	1	0	0	4516.16	4770.71	4305.35	9.4161	3429.58	1649.8	497.651	5023.59	6680.21	7662.74	6513.43	53.5096	4972.51	2589.94	887.798	8717.92	20.826	209.166	20.185	188.906	196.277	201.217	202.972	195.651	8192	-8191	8192	8192	254	
77629.312	1	1	0	0	4574.08	4757.15	4292.46	13.9303	3420.52	1640.56	498.442	4954.38	6728.23	7652.27	6545.74	51.4183	4983.37	2590.74	890.692	8639.12	20.773	208.969	19.278	203.275	196.530	198.996	202.118	196.417	8192	-8191	8192	8192	254	
77629.359	1	1	0	0	4528.31	4775.93	4274.05	12.513	3413.83	1634.46	495.561	5016.27	6675.72	7652.49	6503.01	58.4471	5006.18	2552.36	894.909	8649.57	21.240	208.694	20.186	188.862	196.869	198.420	204.910	197.618	8192	-8191	8192	8192	254	
77629.406	1	1	0	0	4501.02	4745.73	4319.45	8.15076	3490.93	1653.05	501.627	4990.3	6685.45	7703.75	6519.89	58.2356	5028.38	2576.72	874.216	8625.38	20.922	208.711	19.288	187.956	196.862	200.075	202.233	196.530	8192	-8191	8192	8192	254	
77629.453	1	1	0	0	4576.44	4764.98	4302.04	14.3304	3532.88	1669.27	481.628	4965.57	6681.91	7674.58	6492.93	56.1923	5038	2593.71	873.976	8592.52	21.592	209.463	19.149	216.542	194.811	200.298	202.190	196.904	8192	-8191	8192	8192	254	
77629.508	1	1	0	0	4598.37	4779.42	4299.9	5.12369	3427.42	1632.25	505.15	5034.44	6738.25	7681.71	6525.51	60.399	5025	2578.41	900.74	8669.2	20.565	208.936	19.003	205.020	195.293	200.014	204.294	196.592	8192	-8191	8192	8192	254	
77629.555	1	1	0	0	4446.6	4707.66	4312.32	5.66687	3503.87	1648.65	506.904	5090.85	6637.58	7642.52	6504.79	57.0625	5011.31	2563.58	889.582	8696.85	21.317	209.236	19.575	238.686	196.489	199.548	201.119	197.195	8192	-8191	8192	8192	254	
77629.625	1	1	0	0	4505.77	4719.99	4217.88	7.15039	3456.4	1651.77	538.455	4959.35	6668.88	7648.57	6483.03	54.2596	4993.82	2563.61	902.337	8641.24	20.723	209.352	19.045	154.092	196.268	200.177	200.898	196.787	8192	-8191	8192	8192	254	
77629.672	1	1	0	0	4531.75	4708.94	4227.07	6.11744	3481.66	1632.19	506.023	5027.82	6696.02	7628.6	6425.8	51.1058	5031.28	2564.7	889.394	8695.84	20.689	208.488	20.062	232.441	196.874	198.781	203.030	195.977	8192	-8191	8192	8192	254	
77629.719	1	1	0	0	4532.29	4693.71	4252.07	10.9361	3420.5	1590.18	504.413	5029.06	6677.04	7639.87	6477.25	54.5096	4968.66	2537.39	890.447	8644.26	21.008	209.649	19.509	230.147	196.596	200.656	201.748	196.931	8192	-8191	8192	8192	254	
77629.773	1	1	0	0	4466.42	4739.16	4288.54	7.23907	3407.41	1655.65	493.097	4944.52	6671.82	7634.84	6499.48	54.3462	4963.14	2580.43	892.226	8677.78	21.082	208.753	20.423	206.199	195.357	200.007	205.849	196.190	8192	-8191	8192	8192	254	
77629.766	1	1	0	0	4549.21	4722.76	4303.59	9.7226	3478.9	1556.22	514.605	4971.09	6681.66	7634.98	6534.26	57.6731	5023.38	2523.68	893.327	8653.52	21.217	208.816	19.811	194.029	196.155	201.252	203.833	196.554	8192	-8191	8192	8192	254	
77629.820	1	1	0	0	4529.62	4689.51	4234.1	2.23085	3429.01	1621.25	533.584	5027.02	6688.13	7617.28	6462.22	55.7788	5013.45	2541.48	905.135	8664.27	21.431	208.952	19.000	202.686	195.412	199.399	203.004	196.475	8192	-8191	8192	8192	254	
77629.867	1	1	0	0	4491.12	4728.31	4286.27	10.8179	3431.33	1625.35	493.685	4980.33	6679.71	7676.59	6499.73	53.0913	4995.67	2544.16	891.327	8664.16	21.067	209.902	19.771	181.487	196.105	199.814	202.565	197.176	8192	-8191	8192	8192	254	
77629.914	1	1	0	0	4511.56	4749.15	4299.57	6.92445	3478.6	1595.71	511.99	5001.13	6694.62	7663.14	6498.76	53.8606	4985.38	2555.79	882.615	8666.85	21.290	209.836	20.050	173.261	195.865	199.293	202.885	196.781	8192	-8191	8192	8192	254	
