BOXY.EXE: ISS Imagent Data Acquisition Program Version 0.82
Ascii Record File

#ACQ INFORMATION
1  Detector Channels 
8  External MUX Channels 
4  Auxiliary Analog Channels 
5000  Waveform (CCF) Frequency (Hz)
4  Waveforms Skipped 
26  Waveforms Averaged 
1  Cycles Averaged 
8  Acquisitions per Waveform 
1  Auxiliary Digital Channels 

#Data Update Rate
20.8333  Update Rate (Hz) 
FALSE -- Use Phase Reference
FALSE -- Use Continuous Phase Reference
FALSE -- Use Intensity Reference
FALSE -- Use Continuous Intensity Reference

#FILE INFORMATION
TRUE -- External MUX Channel results are PARSED.
FALSE -- AC DC and Phase are NOT grouped.
TRUE -- Companion Program Settings File CREATED.
FALSE -- AC data not excluded
FALSE -- DC data not excluded
FALSE -- Phase data not excluded
FALSE -- Auxillary Chn. data not excluded
Tab delimiters

#CALIBRATION STATE
FALSE -- Waveform Calibration Values NOT applied.

#WAVELENGTH DATA
Wavelength Index	Wavelength	Comp1 ExtCoef	Comp2 ExtCoef	Comp3 ExtCoef	Comp4 ExtCoef	BackGround	Weight	

1	6.600e+02	1.486e+00	3.844e+00	1.000e+00	1.000e+00	1.890e-02	1.000e+00	
2	6.900e+02	2.315e+00	1.792e+00	1.000e+00	1.000e+00	2.180e-02	1.000e+00	
3	7.500e+02	1.000e+00	1.000e+00	1.000e+00	1.000e+00	3.010e-03	1.000e+00	
4	7.750e+02	1.000e+00	1.000e+00	1.000e+00	1.000e+00	3.240e-03	1.000e+00	
5	7.850e+02	1.000e+00	1.000e+00	1.000e+00	1.000e+00	1.660e-02	1.000e+00	
6	8.000e+02	1.000e+00	1.000e+00	1.000e+00	1.000e+00	1.480e-02	1.000e+00	
7	8.250e+02	1.000e+00	1.000e+00	1.000e+00	1.000e+00	1.620e-02	1.000e+00	
8	8.300e+02	1.000e+00	1.000e+00	1.000e+00	1.000e+00	2.620e-02	1.000e+00	


#AUX CALIBRATION VALUES
Val Type	aux-1	aux-2	aux-3	aux-4	

Term	0.0000e+00	0.0000e+00	0.0000e+00	0.0000e+00	
Factor	1.0000e+00	1.0000e+00	1.0000e+00	1.0000e+00	


#WF CALIBRATION VALUES
A = Detector Channel
Val Type	A-AC1	A-AC2	A-AC3	A-AC4	A-AC5	A-AC6	A-AC7	A-AC8	A-DC1	A-DC2	A-DC3	A-DC4	A-DC5	A-DC6	A-DC7	A-DC8	A-Ph1	A-Ph2	A-Ph3	A-Ph4	A-Ph5	A-Ph6	A-Ph7	A-Ph8	

Term	0.00000e+00	0.00000e+00	0.00000e+00	0.00000e+00	0.00000e+00	0.00000e+00	0.00000e+00	0.00000e+00	0.00000e+00	0.00000e+00	0.00000e+00	0.00000e+00	0.00000e+00	0.00000e+00	0.00000e+00	0.00000e+00	-1.05892e+02	-9.99249e+01	-2.86485e+02	-2.62799e+02	-2.45797e+02	-2.48632e+02	-7.72400e+01	-7.86612e+01	
Factor	3.48934e-02	2.88771e-02	2.23541e-02	4.58344e-02	3.11822e-02	3.92311e-02	3.80806e-02	2.80088e-02	4.70955e+01	8.07534e+01	3.66973e+01	1.04434e+02	6.45565e+01	3.94082e+01	9.13796e+01	5.49806e+01	X	X	X	X	X	X	X	X	



#DISTANCE SETTINGS
A = Detector Channel
A-1	A-2	A-3	A-4	A-5	A-6	A-7	A-8	

1.5000e+00	1.5000e+00	1.5000e+00	1.5000e+00	1.5000e+00	1.5000e+00	1.5000e+00	1.5000e+00	



#ADDITIONAL SIGNAL INFORMATION
A = Detector Channel
Info. Type	A-1	A-2	A-3	A-4	A-5	A-6	A-7	A-8	

cal. block. ind.	1	1	1	1	1	1	1	1	
wavelength ind.	0	1	2	3	4	5	6	7	
weight	1.0000e+00	1.0000e+00	1.0000e+00	1.0000e+00	1.0000e+00	1.0000e+00	1.0000e+00	1.0000e+00	


#CALIBRATION BLOCK OPTICAL PROPS
Calib. Block Num.	WaveLen Index	Absorption	Scattering	

1	1	1.080e-01	9.000e+00	
1	2	1.300e-01	1.070e+01	
1	3	1.130e-01	9.400e+00	
1	4	1.210e-01	1.000e+01	
1	5	1.080e-01	9.000e+00	
1	6	1.300e-01	1.070e+01	
1	7	1.150e-01	9.600e+00	
1	8	1.330e-01	1.090e+01	

Calib. Block Num.	WaveLen Index	Absorption	Scattering	

2	1	1.120e-01	4.400e+00	
2	2	1.200e-01	5.700e+00	
2	3	1.140e-01	4.600e+00	
2	4	1.160e-01	5.100e+00	
2	5	1.120e-01	4.400e+00	
2	6	1.200e-01	5.700e+00	
2	7	1.150e-01	4.800e+00	
2	8	1.210e-01	6.000e+00	

Calib. Block Num.	WaveLen Index	Absorption	Scattering	

3	1	9.300e-02	8.700e+00	
3	2	1.010e-01	1.040e+01	
3	3	9.500e-02	9.000e+00	
3	4	9.700e-02	9.600e+00	
3	5	9.300e-02	8.700e+00	
3	6	1.010e-01	1.040e+01	
3	7	9.600e-02	9.300e+00	
3	8	1.030e-01	1.080e+01	

Calib. Block Num.	WaveLen Index	Absorption	Scattering	

4	1	1.000e-01	1.000e+01	
4	2	1.000e-01	1.000e+01	
4	3	1.000e-01	1.000e+01	
4	4	1.000e-01	1.000e+01	
4	5	1.000e-01	1.000e+01	
4	6	1.000e-01	1.000e+01	
4	7	1.000e-01	1.000e+01	
4	8	1.000e-01	1.000e+01	



#DATA BEGINS
time	group	step	mark	flag	A-AC1	A-AC2	A-AC3	A-AC4	A-AC5	A-AC6	A-AC7	A-AC8	A-DC1	A-DC2	A-DC3	A-DC4	A-DC5	A-DC6	A-DC7	A-DC8	A-Ph1	A-Ph2	A-Ph3	A-Ph4	A-Ph5	A-Ph6	A-Ph7	A-Ph8	aux-1	aux-2	aux-3	aux-4	digaux	

77168.055	1	1	0	768	3723.21	9.09452	3513.84	1669.92	503.334	5101	0.709201	2.26651	5601.65	61.274	5098.89	2633.78	919.538	8898.43	54.0048	48.8317	194.001	49.444	9.475	13.994	13.793	9.703	135.738	261.466	8192	-8191	8192	8192	254	
77168.109	1	1	0	0	4674.01	4907.5	4260.07	12.2809	3508.92	1650.11	522.185	5157.02	6878.89	7943.86	6472.75	62.2933	5128.63	2626.06	912.721	8885.64	194.689	22.859	193.137	12.431	8.829	10.818	14.889	9.947	8192	-8191	8192	8192	254	
77168.180	1	1	0	0	4642.63	4934.01	4315.04	4.22316	3539.31	1697.77	530.23	5122.11	6883.14	7945.21	6545.82	62.5769	5142.07	2640.68	927.784	8898.45	194.023	22.597	193.239	32.954	9.350	11.560	14.527	9.023	8192	-8191	8192	8192	254	
77168.227	1	1	0	0	4649.88	4923.77	4375.6	4.16863	3614.57	1675.63	497.872	5078.78	6869.36	7973.03	6589.41	62.5	5153.38	2634.13	914.75	8828.41	193.339	22.382	192.462	354.751	9.525	12.173	15.327	9.430	8192	-8191	8192	8192	254	
77168.273	1	1	0	0	4597.29	4960.06	4341.1	5.704	3520.15	1669.66	540.845	5151.95	6835.62	7960.18	6575.46	57.3606	5137.72	2639.13	930.808	8913.27	193.400	22.940	193.122	262.751	8.515	13.334	16.610	9.506	8192	-8191	8192	8192	254	
77168.320	1	1	0	0	4696.4	4947.45	4409.75	7.16462	3509.7	1663.01	497.388	5159.13	6899.48	7989.29	6639.09	60.1635	5144.32	2638.96	921.832	8908.33	194.052	21.694	194.076	346.953	8.981	14.014	15.364	8.987	8192	-8191	8192	8192	254	
77168.367	1	1	0	0	4646.77	4987.01	4421.57	3.61765	3500.44	1663.66	527.852	5176.79	6828.85	7996.81	6656.91	57.4663	5099.03	2637.13	930.913	8889.79	194.429	22.759	193.669	24.988	9.037	13.027	15.839	9.716	8192	-8191	8192	8192	254	
77168.422	1	1	0	0	4694.41	4943.94	4397.02	7.45943	3521.15	1664.09	511.755	5151.35	6881.35	8011	6661.5	56.4904	5139.96	2634.62	920.966	8926.26	194.006	21.599	192.879	26.130	9.824	12.307	14.196	9.565	8192	-8191	8192	8192	254	
77168.469	1	1	0	0	4652.35	4913.5	4376.3	5.00642	3602.21	1677.46	553.289	5081.73	6856.56	7933.45	6663.48	63.524	5165.58	2629.66	924.019	8918.51	194.272	23.226	192.924	349.504	9.111	13.274	14.842	9.498	8192	-8191	8192	8192	254	
77168.516	1	1	0	0	4648.17	4870.37	4397.27	11.3123	3534.6	1649.87	510.538	5108.94	6866.52	7872.61	6651.19	60.7933	5128.92	2621.25	921.216	8839.32	193.924	22.694	192.678	27.957	9.506	13.758	16.884	9.197	8192	-8191	8192	8192	254	
77168.562	1	1	0	0	4676.01	4967.03	4392.92	4.36997	3547.48	1678.12	530.281	5052.29	6893.85	7972.11	6643.77	55.4471	5151.94	2664.11	936.183	8840.14	193.977	22.005	193.323	18.921	9.229	12.386	17.386	9.033	8192	-8191	8192	8192	254	
77168.609	1	1	0	0	4601.75	4878.2	4414.64	7.43806	3529.82	1608.79	483.813	5175.56	6829.46	7981.01	6667.26	67.5529	5138.95	2628.95	921.293	8870.19	193.607	21.832	192.486	18.965	9.321	13.288	13.722	9.158	8192	-8191	8192	8192	254	
77168.680	1	1	0	0	4604.23	4883.04	4343.23	0.919386	3560.2	1658.76	532.669	5121.84	6836	7950.65	6642.05	60.7788	5170.09	2639.08	937.226	8887.42	193.893	22.567	192.394	123.167	9.517	12.360	16.682	9.725	8192	-8191	8192	8192	254	
77168.734	1	1	0	0	4636.98	4933.81	4426.03	4.60103	3598.65	1660.82	507.356	5080.57	6831.29	7948.52	6682.75	55.601	5197.16	2619.15	917.447	8829.85	193.826	22.484	193.698	25.853	8.673	12.904	15.889	10.002	8192	-8191	8192	8192	254	
77168.781	1	1	0	0	4688.8	4973.59	4379.95	8.30727	3550.51	1640.9	515.679	5064.79	6882.41	7918.38	6629.39	60.5673	5163.41	2636.75	930.298	8839.84	193.914	21.915	193.072	16.066	9.553	11.882	18.089	9.171	8192	-8191	8192	8192	254	
77168.828	1	1	0	0	4638.57	4953.17	4415.96	7.36287	3559.43	1638.69	534.609	5068.68	6890.37	7965.54	6691.83	56.9567	5152.51	2622.3	934.846	8847	194.079	22.565	191.691	26.186	8.565	13.393	15.785	9.325	8192	-8191	8192	8192	254	
77168.828	1	1	0	0	4684.3	4925.86	4351.8	12.6249	3538.18	1671.35	512.832	5081.31	6870.31	7934.71	6628.48	59.7163	5152.85	2644.3	917.495	8876.92	193.942	22.373	193.320	53.091	8.650	12.736	17.197	8.973	8192	-8191	8192	8192	254	
77168.875	1	1	0	0	4615.29	4888.84	4320.84	8.91634	3494.44	1682.7	512.864	5096.17	6845.46	7956.69	6633.88	57.6154	5105.46	2643.63	923.986	8824.04	193.376	22.076	192.936	4.877	9.156	11.670	19.183	9.435	8192	-8191	8192	8192	254	
77168.922	1	1	1	0	4763.76	4872.7	4373.38	6.22239	3536.19	1632.49	558.21	5134.46	6924.61	7920.81	6685.81	60.649	5135.61	2599.01	949.846	8918.24	193.980	22.317	192.750	358.763	9.926	13.614	16.249	9.485	8192	-8191	8192	8192	254	
77168.969	1	1	0	0	4654.91	4937.06	4365.84	7.78957	3587.95	1698.83	530.75	5124.41	6864.87	7953.79	6653.91	57.7356	5173.33	2638.82	937.13	8868.63	193.403	22.735	192.532	21.241	9.294	12.934	16.991	9.446	8192	-8191	8192	8192	254	
77169.016	1	1	0	0	4675.94	4959.06	4377.54	6.8711	3560.33	1649.35	510.803	5167.03	6876.41	7964.54	6671.49	55.5673	5142.08	2640.05	932.505	8921.12	193.600	22.739	192.868	7.265	8.571	12.669	18.495	9.597	8192	-8191	8192	8192	254	
77169.062	1	1	0	0	4619.49	4927.66	4338.69	8.57921	3543.87	1670.84	520.148	5123.09	6827.12	7979.87	6645.45	63.3317	5120.11	2661.4	929.495	8900.5	194.279	22.074	192.841	62.176	10.141	13.698	14.736	9.260	8192	-8191	8192	8192	254	
77169.141	1	1	0	0	4649.37	4871.11	4409.08	8.68283	3527.27	1652.43	512.077	5118.94	6850.75	7923.06	6677.6	56.2404	5106.68	2642.75	928.538	8896.17	194.217	22.196	192.991	356.332	9.765	12.769	16.394	8.640	8192	-8191	8192	8192	254	
77169.188	1	1	0	0	4639.21	4923.62	4442.46	6.46045	3508.88	1695.03	527.39	5154.74	6824.03	7910.58	6711.79	60.5673	5097.98	2664.37	918.577	8904.96	194.021	22.670	193.158	22.667	8.759	14.157	17.852	9.813	8192	-8191	8192	8192	254	
77169.234	1	1	0	0	4622.49	4904.38	4476.87	7.61408	3557.99	1668.81	525.009	5139.56	6856.42	7933.99	6722.43	58.9087	5136.18	2632.57	923.755	8852.2	194.165	22.324	192.395	33.996	9.097	13.572	16.832	9.748	8192	-8191	8192	8192	254	
77169.281	1	1	0	0	4657.38	4999.12	4338.52	7.51165	3584.14	1684.26	539.812	5173.55	6913.85	7973.42	6625.62	60.9904	5172.56	2649.71	942.144	8887.97	194.408	22.224	192.501	314.130	8.658	12.075	16.108	9.398	8192	-8191	8192	8192	254	
77169.328	1	1	0	0	4611.14	4899.84	4341.39	10.2124	3631.54	1632.14	514.794	5092.66	6850.11	7997.84	6645.23	62.726	5173.05	2625.13	922.841	8901.73	193.326	22.596	193.198	356.952	9.412	12.569	14.552	10.556	8192	-8191	8192	8192	254	
77169.383	1	1	0	0	4623.79	4944.6	4373.96	11.3474	3587.03	1704.62	510.395	5111.22	6825.65	7957.58	6649.91	59.3462	5175.85	2635.61	917.457	8875.4	194.557	21.981	192.527	359.207	9.682	13.905	19.204	10.223	8192	-8191	8192	8192	254	
77169.453	1	1	0	0	4664.89	4939.89	4428.55	8.53183	3577.36	1687.77	522.147	5133.56	6896.21	8001.45	6655.48	56.0625	5148.31	2646.7	943.24	8891.84	194.254	21.585	192.381	295.460	8.973	12.274	16.446	9.561	8192	-8191	8192	8192	254	
77169.500	1	1	0	0	4649.54	4888.81	4341.63	3.21327	3549.51	1660.89	514.07	5198.9	6813.25	7926.67	6670.66	58.6154	5139.51	2614.07	912.798	8853.36	193.810	22.002	193.184	56.871	9.210	12.243	17.256	9.606	8192	-8191	8192	8192	254	
77169.547	1	1	0	0	4673.74	4919.16	4409.41	7.54929	3513.34	1686.05	545.425	5107.34	6869.26	7949.85	6655.24	58.7163	5107.86	2619.43	938.159	8820.16	194.364	22.945	192.999	22.957	8.828	12.986	16.382	9.593	8192	-8191	8192	8192	254	
77169.594	1	1	0	0	4694.57	4871.9	4430.13	5.14967	3506.78	1655.39	554.224	5111.68	6861.64	7900.32	6736.8	55.5096	5133.41	2651.22	934.423	8850.11	193.785	21.448	192.643	72.391	10.512	13.343	15.864	9.297	8192	-8191	8192	8192	254	
77169.594	1	1	0	0	4635.78	4947.48	4372.84	3.57087	3532.26	1655.11	529.721	5131.01	6824.93	7970.59	6667.93	60.3029	5135.04	2625.8	921.024	8845.5	193.117	21.607	192.541	38.940	8.916	11.495	14.938	8.820	8192	-8191	8192	8192	254	
77169.641	1	1	0	0	4688.49	4948.75	4433.32	2.47622	3510.56	1696.13	515.712	5113.83	6871.27	8007.23	6681.1	62.1154	5118.26	2672.69	939.846	8888.17	193.762	21.474	192.912	0.001	9.527	12.488	15.545	9.808	8192	-8191	8192	8192	254	
77169.688	1	1	0	0	4681.08	4879.81	4326.95	1.51456	3549.43	1672.01	543.534	5152.02	6862.18	7958.05	6672.54	63.4231	5127.53	2641.36	945.938	8885.62	193.108	23.161	193.337	73.199	9.242	12.535	16.047	9.800	8192	-8191	8192	8192	254	
77169.734	1	1	0	0	4558.77	4953.92	4347.57	1.49195	3559.65	1655.62	502.264	5075.19	6795.41	7960.08	6661.33	61.0962	5152.34	2617.98	917.365	8889.01	193.431	21.819	192.989	61.930	9.653	12.217	17.679	9.131	8192	-8191	8192	8192	254	
77169.812	1	1	0	0	4675.04	4863.29	4354.24	5.69545	3587.08	1681.03	508.698	5106.5	6865.95	7954.32	6671.11	61.25	5161.75	2630.14	928.471	8885.75	193.880	21.917	192.756	63.248	9.157	12.283	16.262	9.026	8192	-8191	8192	8192	254	
77169.859	1	1	0	0	4636.99	4908.39	4312.17	9.11181	3554.58	1657.84	519.386	5283.08	6834.94	7992.17	6628.06	58.5048	5149.38	2632.76	926.899	8975.9	193.546	22.307	192.591	15.971	9.292	12.989	16.889	9.571	8192	-8191	8192	8192	254	
77169.906	1	1	0	0	4681.27	4932	4391.6	8.96486	3497.11	1648.23	520.105	5162.68	6916.34	7942.67	6698.05	63.6827	5123.99	2621.95	926.288	8851.33	194.443	22.607	193.027	25.406	10.001	12.389	16.995	9.702	8192	-8191	8192	8192	254	
77169.953	1	1	0	0	4652.98	4955.19	4329.98	3.33215	3594.68	1668.58	536.009	5098.69	6864.36	7978.59	6645.29	57.9519	5150.64	2645.61	940.452	8880.38	194.018	21.799	192.546	38.933	9.237	13.156	15.341	9.064	8192	-8191	8192	8192	254	
77170.000	1	1	0	0	4689.38	4861	4451.38	7.82536	3559.95	1648.82	521.334	5128	6896.19	7910.43	6673.08	58.0529	5134.8	2631.3	935.716	8909.3	194.205	22.282	192.446	10.007	8.593	11.875	15.212	9.104	8192	-8191	8192	8192	254	
77170.055	1	1	0	0	4637.6	4897.61	4356.52	8.14456	3556.84	1634.89	526.663	5084.11	6844.6	7928.15	6663.41	59.6779	5144.61	2630.51	934.548	8822.71	194.333	22.019	192.931	54.061	9.127	10.889	19.138	9.762	8192	-8191	8192	8192	254	
77170.125	1	1	0	0	4688.17	5004.6	4449.03	7.13465	3542.93	1656.24	548.243	5059.03	6874.12	8016.6	6717.7	60.024	5100.08	2619.75	930.962	8855.66	194.319	22.269	192.807	38.154	9.484	13.015	16.186	9.501	8192	-8191	8192	8192	254	
77170.172	1	1	0	0	4666.79	4964.24	4430.07	3.39939	3566.8	1663.38	515.74	5124.9	6852.24	7995.19	6743.62	57.5577	5173.8	2638.64	913.702	8918	194.464	22.658	193.599	112.179	9.810	11.968	17.333	9.803	8192	-8191	8192	8192	254	
77170.219	1	1	0	0	4591.28	4955.8	4462.77	4.03266	3551.8	1680.8	505.708	5103.93	6802.64	7951.94	6706.83	62.3798	5157.59	2663.36	909.106	8858.91	194.174	22.808	193.364	52.693	10.072	12.792	15.078	9.525	8192	-8191	8192	8192	254	
77170.266	1	1	0	0	4652.44	4887.35	4363.02	9.77366	3541.5	1648.6	518.278	5013.58	6848.57	7943.23	6618.05	59.4375	5158.11	2633.34	906.928	8777.69	193.653	22.602	192.895	52.129	9.050	12.632	14.367	9.942	8192	-8191	8192	8192	254	
77170.312	1	1	0	0	4657.58	4932.02	4421.16	4.28087	3646.52	1677.03	510.545	5265.97	6907.12	7983.62	6725.96	65.649	5234.39	2666.33	904.476	9114.07	194.170	22.354	193.871	19.714	8.716	12.702	16.688	9.873	8192	-8191	8192	8192	254	
77170.359	1	1	0	0	4664.59	4982.05	4360.94	9.38452	3640.66	1660.48	509.024	5207.11	6881.45	8051.76	6686.99	65.1971	5200.86	2624.12	934.957	9061.62	194.066	22.864	192.938	351.945	9.151	11.306	15.181	9.684	8192	-8191	8192	8192	254	
77170.359	1	1	0	0	4663.09	4967.47	4404.02	7.25724	3617.87	1595.73	514.865	5166.3	6861.07	8051.79	6677.72	67.1394	5202.44	2608.33	902.481	8902.4	193.967	21.833	192.918	354.159	9.760	12.503	17.004	10.322	8192	-8191	8192	8192	254	
77170.414	1	1	0	0	4697.8	4920.92	4397.3	2.52736	3489.13	1665.31	507.855	5075.79	6936.75	7939.95	6675	61.7548	5112.83	2643.02	908.351	8711.52	193.943	22.580	192.518	336.053	9.535	13.149	16.251	9.399	8192	-8191	8192	8192	254	
77170.484	1	1	0	0	4709.9	4990.78	4428.85	7.3809	3560.16	1633.11	537.52	5048.65	6928.23	7994.56	6688.57	59.524	5162.71	2623.44	931.111	8647.33	194.262	22.752	192.953	65.094	9.321	12.572	15.415	9.507	8192	-8191	8192	8192	254	
77170.531	1	1	0	0	4655.9	5008.81	4426.45	8.24287	3581.25	1666.07	545.824	5010.37	6857.24	7975.02	6690.96	57.8942	5161.15	2619.08	913.111	8682.66	193.661	22.512	192.331	0.121	9.480	12.057	18.163	9.490	8192	-8191	8192	8192	254	
77170.578	1	1	0	0	4655.33	4939.01	4424.16	6.14464	3604.78	1641.05	525.3	4960.49	6860.97	7949.49	6741.05	62.1202	5159	2634.09	929.356	8719.29	193.211	22.279	192.564	25.199	9.388	12.987	15.756	10.295	8192	-8191	8192	8192	254	
77170.625	1	1	0	0	4725.45	4824.53	4446.3	3.91851	3597.59	1675.85	518.718	5104.89	6919.15	7899.56	6731.85	85.8558	5211.71	2666.52	942.404	8894.04	194.092	22.347	192.904	2.538	9.356	11.979	15.484	9.604	8192	-8191	8192	8192	254	
77170.680	1	1	0	0	4639.56	4893.26	4381.06	9.16175	3559.95	1685.51	524.422	5247.26	6890.34	7955.86	6676.64	90.1827	5171.57	2683.92	950.668	8962.34	194.120	22.177	192.450	337.308	9.546	13.196	18.439	9.058	8192	-8191	8192	8192	254	
77170.727	1	1	0	0	4726.21	4923.96	4390.64	6.0958	3620.16	1699.87	532.6	5194.66	6892.8	7956.14	6703.03	82.6779	5233.77	2682.34	946.51	8967.38	194.274	22.308	192.748	65.082	9.188	12.760	17.224	8.798	8192	-8191	8192	8192	254	
77170.773	1	1	0	0	4627.51	4945.8	4404.5	8.7576	3602.86	1701.65	534.241	5069.19	6874.26	8021.62	6698.46	90.7212	5191.75	2693.51	954.038	8985.84	193.849	22.449	193.161	29.254	9.253	11.947	15.801	9.461	8192	-8191	8192	8192	254	
77170.820	1	1	0	0	4696.38	4907.29	4427.07	5.02567	3511.6	1684.87	519.156	5181.76	6933.2	8015.41	6684.06	89.6154	5178.35	2663.04	954.019	8957.9	193.977	22.389	192.122	9.838	9.641	12.077	14.453	9.440	8192	-8191	8192	8192	254	
77170.867	1	1	0	0	4608.5	4968.15	4376.2	8.66082	3529.9	1690.37	507.46	5166.19	6884.3	8044.82	6701.61	82.3606	5147.49	2681.9	936.269	8941.31	194.216	22.437	192.208	37.185	8.722	13.580	15.212	9.362	8192	-8191	8192	8192	254	
77170.914	1	1	0	0	4671.17	4916.51	4468.93	11.8342	3556.85	1655.25	511.097	5130.58	6847.26	7974.7	6733.06	66.024	5140.88	2622.52	917.399	8866.59	193.372	22.673	192.982	40.006	9.837	12.951	14.515	9.921	8192	-8191	8192	8192	254	
77170.984	1	1	0	0	4681.74	4914.28	4357.67	8.38156	3557.7	1631.37	500.791	5041.24	6865.62	7927.36	6660.49	60.8125	5150.25	2623.06	906.096	8798.28	194.190	21.813	192.895	42.052	10.187	13.444	17.772	8.986	8192	-8191	8192	8192	254	
77171.031	1	1	0	0	4609.9	4821.87	4357.3	6.88565	3637.86	1701.28	508.425	5108.29	6853.38	7861.04	6648.12	58.0962	5164.63	2644.21	902.659	8866.86	193.640	22.959	192.710	1.723	9.558	13.380	16.209	9.478	8192	-8191	8192	8192	254	
77171.086	1	1	0	0	4650.24	4921.76	4460.41	7.48249	3541.61	1674.04	518.836	5139.9	6881.48	7943.35	6682.01	59.8942	5135.07	2648.15	897.582	8922.77	193.504	21.807	193.146	23.034	9.206	12.782	15.626	9.249	8192	-8191	8192	8192	254	
77171.133	1	1	0	0	4629.8	4963.74	4441.03	5.32205	3556.97	1662.61	526.412	5220.56	6872.35	8004.13	6702.2	60.899	5138.24	2617.67	920.721	8989.33	193.865	21.711	192.992	334.314	9.092	13.206	12.641	9.925	8192	-8191	8192	8192	254	
77171.133	1	1	0	0	4635.35	5001.66	4391.83	11.0468	3518.26	1654.14	492.821	5180.19	6861.58	8011.91	6720.75	55.4135	5165.18	2633.16	896.423	8921.03	194.063	22.039	193.260	14.254	10.141	13.404	16.091	10.119	8192	-8191	8192	8192	254	
77171.180	1	1	0	0	4686.18	4877.97	4388.87	8.83519	3524.41	1679.57	517.648	5132.51	6884.56	7967.94	6699.98	60	5105.16	2617.64	911.827	8892.88	194.501	22.386	192.929	359.734	8.823	13.342	13.068	9.018	8192	-8191	8192	8192	254	
77171.227	1	1	0	0	4637.07	4911.8	4420.14	6.22576	3547.52	1647.21	527.465	5119.92	6862.42	7962.16	6713.04	55.5096	5151.34	2625.02	935.957	8914.4	193.602	22.261	192.740	3.386	9.049	13.838	17.312	9.389	8192	-8191	8192	8192	254	
77171.273	1	1	0	0	4604.9	4887.14	4450.69	6.05657	3495.23	1686.01	510.713	5080.86	6803.85	7938.45	6731.94	57.3798	5123.83	2632.77	902.394	8822.99	193.946	22.376	192.679	122.588	8.470	12.150	14.177	9.948	8192	-8191	8192	8192	254	
77171.344	1	1	0	0	4645.63	4918.27	4382.77	9.24592	3556.03	1663.7	542.928	5196.95	6879.51	7941.46	6644	55.0769	5124	2647.97	930.279	8897.69	194.289	22.787	193.462	47.218	9.082	12.059	19.153	10.016	8192	-8191	8192	8192	254	
