BOXY.EXE: ISS Imagent Data Acquisition Program Version 0.82
Ascii Record File

#ACQ INFORMATION
1  Detector Channels 
8  External MUX Channels 
4  Auxiliary Analog Channels 
5000  Waveform (CCF) Frequency (Hz)
4  Waveforms Skipped 
26  Waveforms Averaged 
1  Cycles Averaged 
8  Acquisitions per Waveform 
1  Auxiliary Digital Channels 

#Data Update Rate
20.8333  Update Rate (Hz) 
FALSE -- Use Phase Reference
FALSE -- Use Continuous Phase Reference
FALSE -- Use Intensity Reference
FALSE -- Use Continuous Intensity Reference

#FILE INFORMATION
TRUE -- External MUX Channel results are PARSED.
FALSE -- AC DC and Phase are NOT grouped.
TRUE -- Companion Program Settings File CREATED.
FALSE -- AC data not excluded
FALSE -- DC data not excluded
FALSE -- Phase data not excluded
FALSE -- Auxillary Chn. data not excluded
Tab delimiters

#CALIBRATION STATE
FALSE -- Waveform Calibration Values NOT applied.

#WAVELENGTH DATA
Wavelength Index	Wavelength	Comp1 ExtCoef	Comp2 ExtCoef	Comp3 ExtCoef	Comp4 ExtCoef	BackGround	Weight	

1	6.600e+02	1.486e+00	3.844e+00	1.000e+00	1.000e+00	1.890e-02	1.000e+00	
2	6.900e+02	2.315e+00	1.792e+00	1.000e+00	1.000e+00	2.180e-02	1.000e+00	
3	7.500e+02	1.000e+00	1.000e+00	1.000e+00	1.000e+00	3.010e-03	1.000e+00	
4	7.750e+02	1.000e+00	1.000e+00	1.000e+00	1.000e+00	3.240e-03	1.000e+00	
5	7.850e+02	1.000e+00	1.000e+00	1.000e+00	1.000e+00	1.660e-02	1.000e+00	
6	8.000e+02	1.000e+00	1.000e+00	1.000e+00	1.000e+00	1.480e-02	1.000e+00	
7	8.250e+02	1.000e+00	1.000e+00	1.000e+00	1.000e+00	1.620e-02	1.000e+00	
8	8.300e+02	1.000e+00	1.000e+00	1.000e+00	1.000e+00	2.620e-02	1.000e+00	


#AUX CALIBRATION VALUES
Val Type	aux-1	aux-2	aux-3	aux-4	

Term	0.0000e+00	0.0000e+00	0.0000e+00	0.0000e+00	
Factor	1.0000e+00	1.0000e+00	1.0000e+00	1.0000e+00	


#WF CALIBRATION VALUES
A = Detector Channel
Val Type	A-AC1	A-AC2	A-AC3	A-AC4	A-AC5	A-AC6	A-AC7	A-AC8	A-DC1	A-DC2	A-DC3	A-DC4	A-DC5	A-DC6	A-DC7	A-DC8	A-Ph1	A-Ph2	A-Ph3	A-Ph4	A-Ph5	A-Ph6	A-Ph7	A-Ph8	

Term	0.00000e+00	0.00000e+00	0.00000e+00	0.00000e+00	0.00000e+00	0.00000e+00	0.00000e+00	0.00000e+00	0.00000e+00	0.00000e+00	0.00000e+00	0.00000e+00	0.00000e+00	0.00000e+00	0.00000e+00	0.00000e+00	-1.05892e+02	-9.99249e+01	-2.86485e+02	-2.62799e+02	-2.45797e+02	-2.48632e+02	-7.72400e+01	-7.86612e+01	
Factor	3.48934e-02	2.88771e-02	2.23541e-02	4.58344e-02	3.11822e-02	3.92311e-02	3.80806e-02	2.80088e-02	4.70955e+01	8.07534e+01	3.66973e+01	1.04434e+02	6.45565e+01	3.94082e+01	9.13796e+01	5.49806e+01	X	X	X	X	X	X	X	X	



#DISTANCE SETTINGS
A = Detector Channel
A-1	A-2	A-3	A-4	A-5	A-6	A-7	A-8	

1.5000e+00	1.5000e+00	1.5000e+00	1.5000e+00	1.5000e+00	1.5000e+00	1.5000e+00	1.5000e+00	



#ADDITIONAL SIGNAL INFORMATION
A = Detector Channel
Info. Type	A-1	A-2	A-3	A-4	A-5	A-6	A-7	A-8	

cal. block. ind.	1	1	1	1	1	1	1	1	
wavelength ind.	0	1	2	3	4	5	6	7	
weight	1.0000e+00	1.0000e+00	1.0000e+00	1.0000e+00	1.0000e+00	1.0000e+00	1.0000e+00	1.0000e+00	


#CALIBRATION BLOCK OPTICAL PROPS
Calib. Block Num.	WaveLen Index	Absorption	Scattering	

1	1	1.080e-01	9.000e+00	
1	2	1.300e-01	1.070e+01	
1	3	1.130e-01	9.400e+00	
1	4	1.210e-01	1.000e+01	
1	5	1.080e-01	9.000e+00	
1	6	1.300e-01	1.070e+01	
1	7	1.150e-01	9.600e+00	
1	8	1.330e-01	1.090e+01	

Calib. Block Num.	WaveLen Index	Absorption	Scattering	

2	1	1.120e-01	4.400e+00	
2	2	1.200e-01	5.700e+00	
2	3	1.140e-01	4.600e+00	
2	4	1.160e-01	5.100e+00	
2	5	1.120e-01	4.400e+00	
2	6	1.200e-01	5.700e+00	
2	7	1.150e-01	4.800e+00	
2	8	1.210e-01	6.000e+00	

Calib. Block Num.	WaveLen Index	Absorption	Scattering	

3	1	9.300e-02	8.700e+00	
3	2	1.010e-01	1.040e+01	
3	3	9.500e-02	9.000e+00	
3	4	9.700e-02	9.600e+00	
3	5	9.300e-02	8.700e+00	
3	6	1.010e-01	1.040e+01	
3	7	9.600e-02	9.300e+00	
3	8	1.030e-01	1.080e+01	

Calib. Block Num.	WaveLen Index	Absorption	Scattering	

4	1	1.000e-01	1.000e+01	
4	2	1.000e-01	1.000e+01	
4	3	1.000e-01	1.000e+01	
4	4	1.000e-01	1.000e+01	
4	5	1.000e-01	1.000e+01	
4	6	1.000e-01	1.000e+01	
4	7	1.000e-01	1.000e+01	
4	8	1.000e-01	1.000e+01	



#DATA BEGINS
time	group	step	mark	flag	A-AC1	A-AC2	A-AC3	A-AC4	A-AC5	A-AC6	A-AC7	A-AC8	A-DC1	A-DC2	A-DC3	A-DC4	A-DC5	A-DC6	A-DC7	A-DC8	A-Ph1	A-Ph2	A-Ph3	A-Ph4	A-Ph5	A-Ph6	A-Ph7	A-Ph8	aux-1	aux-2	aux-3	aux-4	digaux	

77125.164	1	1	0	768	3642.47	8.18599	3504.4	1707.52	498.158	5049.86	4.7968	6.55954	5564.1	60.7837	5109.89	2664.84	907.913	8800.52	49.4904	48.1731	163.469	57.299	338.100	341.483	344.145	338.999	156.353	299.797	8192	-8191	8192	8192	254	
77125.211	1	1	0	0	4666.44	4926.85	4236.77	5.61354	3574.14	1678.51	512.837	5196.02	6879.55	7939.44	6466.2	58.274	5139.1	2630.23	925.231	8925.19	163.700	352.173	162.882	26.182	337.945	342.775	346.672	339.130	8192	-8191	8192	8192	254	
77125.289	1	1	0	0	4633.87	4936.22	4263.68	4.45104	3538.28	1641.36	519.64	5088.73	6831.06	7936.88	6493.48	58.1298	5151.45	2630.6	919.966	8870.9	163.481	351.252	162.722	69.930	338.038	343.697	345.600	339.602	8192	-8191	8192	8192	254	
77125.336	1	1	0	0	4636.67	4940.24	4258.04	11.24	3501.97	1634.8	505.879	5171.91	6837.2	7993.12	6537.13	62	5102.08	2608.53	918.019	8879.05	163.856	352.122	162.477	345.727	338.359	341.433	345.993	338.546	8192	-8191	8192	8192	254	
77125.383	1	1	0	0	4604.2	4863.79	4320.67	7.04325	3515.42	1665.95	523.083	5049.55	6837.52	7942.99	6616.47	56.9471	5075.11	2629.25	929.688	8770.35	163.312	351.777	162.314	335.142	339.137	341.877	344.431	339.279	8192	-8191	8192	8192	254	
77125.430	1	1	0	0	4736.32	4843.55	4307.13	5.78673	3487.61	1668.3	514.052	5043.64	6945.44	7907.1	6629.43	55.8462	5144.88	2640.96	912.981	8723.34	163.492	350.561	162.762	320.233	338.104	342.714	344.185	339.277	8192	-8191	8192	8192	254	
77125.477	1	1	0	0	4698.43	4883.22	4371.25	5.92281	3509.88	1671.92	543.243	5075.53	6887.22	7950.97	6618.1	58.524	5154.97	2637.94	932.317	8746.14	163.958	351.249	162.389	345.090	338.818	341.172	343.751	339.885	8192	-8191	8192	8192	254	
77125.523	1	1	0	0	4729.96	4943.64	4304.5	4.45174	3533.06	1685.64	503.654	5099.43	6938.38	7963.66	6609.92	60.649	5119.95	2622.88	915.106	8814.4	163.336	351.144	162.078	174.128	338.598	341.902	347.792	339.292	8192	-8191	8192	8192	254	
77125.578	1	1	0	0	4669.23	4816.56	4306.17	8.11295	3490.78	1680.28	512.707	5101.59	6861.53	7891.08	6663.92	60.2308	5090.78	2648.44	914.394	8840.66	163.280	351.517	162.380	350.145	338.270	342.336	345.385	338.486	8192	-8191	8192	8192	254	
77125.625	1	1	0	0	4628.18	4845.42	4317.43	11.4128	3546.79	1680.15	536.631	5125.17	6827.85	7896.35	6594.98	63.9471	5123.15	2655.67	918.673	8841.35	162.844	351.641	162.044	26.439	339.347	342.466	343.850	338.776	8192	-8191	8192	8192	254	
77125.695	1	1	0	0	4720.85	4923.43	4398.97	9.65456	3579.27	1692.58	515.523	5098.62	6880.65	7925.37	6676.5	59.3125	5131.88	2645.1	907.144	8843.21	163.063	352.076	162.406	347.667	338.296	343.367	343.637	339.117	8192	-8191	8192	8192	254	
77125.742	1	1	0	0	4729.66	4866.96	4391.19	3.64003	3498.38	1659.69	538.341	5057.31	6913.3	7913.63	6628.43	58.6731	5123.4	2611.01	917.25	8778.19	163.206	351.199	162.159	3.918	338.118	341.160	346.756	338.671	8192	-8191	8192	8192	254	
77125.789	1	1	0	0	4654.01	4954.53	4351.79	1.56015	3562.2	1629.48	494.694	5126	6858.11	7928.96	6647.2	60.7981	5114.31	2591.5	901.793	8814.13	163.834	352.382	162.350	327.176	339.289	341.271	345.442	339.148	8192	-8191	8192	8192	254	
77125.836	1	1	0	0	4675.71	4870.55	4350.82	9.60629	3492.54	1644.57	513.916	5132.09	6906.97	7865.84	6638	57.4519	5101.71	2604.72	915.495	8807.25	163.819	351.430	162.011	343.386	339.481	342.075	345.825	339.599	8192	-8191	8192	8192	254	
77125.883	1	1	0	0	4655.88	4884.45	4467.62	5.39647	3527.91	1655.92	513.315	5154.76	6883.47	7901.22	6707.79	61.2308	5132.05	2623.08	917.562	8850.89	162.786	351.981	162.639	5.709	338.840	342.530	344.647	339.487	8192	-8191	8192	8192	254	
77125.938	1	1	0	0	4647.96	4857.61	4381.23	2.88071	3564.15	1669.6	516.444	5069.13	6881.22	7909.31	6642.21	57.0096	5159.91	2621.98	915.894	8825.68	162.610	351.506	162.114	343.052	338.886	342.219	347.019	339.321	8192	-8191	8192	8192	254	
77125.938	1	1	1	0	4693.75	4841.13	4351.76	8.85252	3483.95	1674.04	525.322	5072.78	6887.1	7951.53	6641.87	58.0048	5088.35	2598.25	917.341	8836.87	163.553	352.533	162.256	346.236	338.505	342.213	344.777	338.786	8192	-8191	8192	8192	254	
77125.984	1	1	0	0	4638.29	5033.21	4389.79	13.6425	3519.35	1654.35	522.705	5087.23	6889.73	7967.27	6664.84	58.5865	5132.39	2641.44	925.029	8811.82	164.041	350.832	162.313	314.821	338.457	341.544	344.251	338.839	8192	-8191	8192	8192	254	
77126.031	1	1	0	0	4610.81	4919.48	4406.1	3.93489	3552.77	1666.83	513.004	5105.93	6819.52	7932.96	6683.63	54.7115	5124.05	2621.99	911.149	8763.36	164.047	352.176	162.398	22.873	338.589	342.056	345.512	339.095	8192	-8191	8192	8192	254	
77126.078	1	1	0	0	4671.29	4933.36	4416.83	3.69751	3556.05	1677.01	517.023	5056.6	6879.1	7929.2	6700.83	59.1202	5128.97	2616.12	931.106	8782.64	163.042	351.458	162.302	343.206	339.405	342.227	346.105	338.933	8192	-8191	8192	8192	254	
77126.148	1	1	0	0	4701.4	4867.56	4255.25	7.50824	3550.95	1646.47	519.006	5093.19	6860.88	7909.43	6570.33	54.9471	5114.38	2622.37	914.692	8761.11	163.523	351.695	163.051	4.190	338.644	341.738	343.541	338.719	8192	-8191	8192	8192	254	
77126.195	1	1	0	0	4684.37	4878.97	4420.3	9.04636	3493.38	1664.64	495.153	5038.75	6896.42	7879.43	6638.5	66.6731	5115.47	2611.72	903.726	8828.77	163.111	352.093	161.801	48.832	338.928	341.546	343.829	338.668	8192	-8191	8192	8192	254	
77126.242	1	1	0	0	4770.6	4877.29	4393.3	6.37464	3586.76	1650.44	485.037	5144.37	6918.5	7948.52	6682.03	57.3798	5174.66	2617.97	909.495	8868.96	163.499	352.211	161.838	19.619	338.201	342.914	347.120	339.169	8192	-8191	8192	8192	254	
77126.297	1	1	0	0	4659.23	4897.44	4366.57	10.1115	3574.77	1697.14	511.499	5076.22	6864.68	7928.12	6637.81	64.7356	5123.39	2656.39	915.024	8808.94	163.920	351.469	162.977	13.851	338.658	343.173	345.275	338.934	8192	-8191	8192	8192	254	
77126.344	1	1	0	0	4592.37	4942.26	4395.2	4.47465	3525.32	1652.2	513.837	5073.38	6827.25	7915.1	6690.69	64.25	5109.28	2625.59	915.558	8841.28	163.665	351.124	161.735	49.929	338.489	341.750	344.218	339.037	8192	-8191	8192	8192	254	
77126.391	1	1	0	0	4596.92	4920.9	4403.1	6.18914	3555.51	1615.15	513.344	5186.86	6830.69	7954.21	6716.47	62.4567	5113.95	2620.72	921.923	8876.29	162.881	351.721	162.849	21.310	337.884	342.496	344.427	337.809	8192	-8191	8192	8192	254	
77126.438	1	1	0	0	4584.04	4855.32	4373.97	10.9402	3534.57	1669.48	514.989	5038.93	6820.43	7896.21	6685.96	66.1587	5113.88	2639.09	918.452	8781.39	163.326	351.718	162.621	333.089	339.016	343.537	345.359	339.679	8192	-8191	8192	8192	254	
77126.484	1	1	0	0	4725.21	4877.64	4356.34	7.71073	3596.67	1697.48	511.393	5122.16	6908.06	7922.92	6610.67	61.5481	5194.67	2647.85	906.389	8816.64	163.228	351.921	162.639	54.210	338.621	342.291	346.362	338.985	8192	-8191	8192	8192	254	
77126.555	1	1	0	0	4635.42	4863.63	4348.23	7.69589	3553.75	1601.96	526.041	5092.17	6854.06	7885.81	6650.6	65.3846	5130.05	2600.82	933.51	8833	163.062	351.671	162.637	344.088	339.351	342.614	343.793	338.918	8192	-8191	8192	8192	254	
77126.609	1	1	0	0	4626.69	4915.88	4364.23	9.40867	3592.07	1697.77	509.489	5073.6	6844.94	7939.07	6688.71	64.851	5150.73	2663.31	924.62	8799.79	162.942	351.647	161.877	14.173	337.868	341.542	344.510	338.561	8192	-8191	8192	8192	254	
77126.656	1	1	0	0	4593.78	4883.9	4359.7	2.91694	3541.79	1639.83	527.45	5084.9	6837.77	7897.47	6675.86	59.4712	5133.58	2612.81	921.986	8803.43	163.251	351.273	162.298	192.244	338.293	342.849	344.311	338.480	8192	-8191	8192	8192	254	
77126.703	1	1	0	0	4686.18	4890.58	4424.91	6.18751	3535.19	1697.57	509.881	5062.32	6877.88	7913.58	6695.87	61.3125	5105.61	2647.46	905.5	8799.01	163.756	351.783	162.369	16.605	339.135	342.612	346.455	338.805	8192	-8191	8192	8192	254	
77126.703	1	1	0	0	4670.89	4939.23	4398.7	11.6964	3539	1662.38	517.944	5055.94	6869.34	7912.52	6651.52	56.8173	5131.19	2659	925.067	8810.95	163.150	351.830	162.261	359.408	338.315	342.379	346.229	338.718	8192	-8191	8192	8192	254	
77126.750	1	1	0	0	4635.38	4871.56	4357.54	10.4021	3483.85	1637.82	531.83	5118.96	6852.52	7925.48	6690.31	60.3462	5103.43	2613.8	919.952	8787.33	163.393	351.494	162.129	312.193	339.294	342.678	345.402	338.778	8192	-8191	8192	8192	254	
77126.820	1	1	0	0	4632.61	4881.29	4317.8	6.83189	3496.03	1638.13	512.094	5142.7	6883	7914.04	6633.1	59.5192	5104.25	2613.58	921.837	8881.7	163.185	351.415	163.198	333.131	338.687	341.962	344.269	339.287	8192	-8191	8192	8192	254	
77126.867	1	1	0	0	4635.25	4892.62	4352.32	4.61919	3504.42	1643.04	540.767	5092.95	6842.99	7893.72	6690.98	63.7548	5104.6	2619.4	913.913	8767.45	163.503	351.289	162.044	99.180	339.233	341.752	344.616	338.937	8192	-8191	8192	8192	254	
77126.922	1	1	0	0	4713.83	4942.1	4375.17	6.51356	3547.24	1619.49	526.406	5045.03	6898.02	7932.84	6634.03	55.6587	5127.29	2610.08	915.236	8760.28	163.869	351.657	161.825	356.256	338.319	342.913	345.190	340.271	8192	-8191	8192	8192	254	
77126.969	1	1	0	0	4668.65	4902.07	4390.25	5.99434	3568.9	1626.94	497.227	5047.21	6859.57	7908.97	6648.2	54.6538	5130.78	2611.8	906.341	8805.64	163.537	351.734	161.682	24.598	338.802	341.666	349.647	338.889	8192	-8191	8192	8192	254	
77127.016	1	1	0	0	4682.23	4848.81	4338.95	4.00443	3624.46	1692.84	512.546	5135.95	6858.24	7893.95	6628.83	56.5913	5168.3	2625.58	899.582	8838.47	163.304	352.036	161.924	329.885	338.819	342.136	346.825	338.672	8192	-8191	8192	8192	254	
77127.062	1	1	0	0	4694.7	4903.63	4379.74	5.47824	3546.21	1658.61	510.738	5033.65	6868.63	7880.75	6675.05	55.3846	5107.88	2628.46	927.072	8775.1	163.750	351.811	162.646	340.614	339.299	341.689	346.424	339.254	8192	-8191	8192	8192	254	
77127.109	1	1	0	0	4639.33	4885.19	4384.11	3.30717	3606.2	1628.52	542.342	5100.46	6841.84	7915.92	6668.21	59.1875	5139.55	2602.36	925.885	8828.48	164.277	350.707	161.931	338.466	338.925	342.790	343.577	338.646	8192	-8191	8192	8192	254	
77127.156	1	1	0	0	4650.1	4906.76	4409.55	9.1828	3503.38	1654.25	517.421	5105.39	6843.62	7947.38	6688.75	59.5817	5096.25	2642.43	913.697	8825.2	162.851	352.504	162.209	352.226	338.758	341.503	347.486	338.963	8192	-8191	8192	8192	254	
77127.203	1	1	0	0	4691.08	4799.23	4310	6.93691	3542.42	1694.27	498.746	5128.55	6902.39	7861.86	6650.29	60.5288	5123.61	2661.42	898.606	8811.8	164.149	352.068	162.062	349.231	338.807	342.183	346.951	338.650	8192	-8191	8192	8192	254	
77127.258	1	1	0	0	4685.41	4934.1	4420.4	2.97064	3513.69	1640.51	540.817	5006.32	6903.34	7928.67	6690.6	49.274	5102.08	2617.58	931.144	8781.31	163.602	351.444	162.156	356.404	339.520	343.530	346.505	339.255	8192	-8191	8192	8192	254	
77127.328	1	1	0	0	4679.98	4897.71	4420.69	1.15082	3579.03	1653.13	531.955	5048.05	6871.12	7900.5	6691.22	58.8221	5128.38	2605.11	909.12	8789.02	163.174	351.343	162.533	258.132	338.308	342.966	342.849	338.905	8192	-8191	8192	8192	254	
77127.375	1	1	0	0	4605.17	5032.32	4305.62	9.24006	3539.57	1635.76	506.056	5083.35	6820.31	7981.26	6626.86	54.4952	5097.89	2602.11	901.438	8811.56	163.045	351.083	162.166	350.770	338.099	341.803	345.571	339.067	8192	-8191	8192	8192	254	
77127.422	1	1	0	0	4654.5	4887.74	4384.66	10.6412	3502.49	1623.02	514.932	5084.99	6888.74	7942.3	6680.61	59.7067	5103.86	2597.08	909.558	8783.44	163.830	351.690	162.729	8.782	338.402	343.106	345.762	338.252	8192	-8191	8192	8192	254	
77127.469	1	1	0	0	4729.45	4885.91	4354.02	6.00033	3480.8	1650.17	500.509	5086.58	6942.66	7901.26	6641.9	56.1154	5094.8	2618.28	917.678	8777.04	162.629	351.294	162.615	53.663	338.370	343.360	347.670	337.855	8192	-8191	8192	8192	254	
77127.469	1	1	0	0	4629.04	4975.08	4383.68	10.1255	3515.63	1661.67	536.019	5095.92	6815.71	7980.9	6671.64	55.0769	5075.39	2630.45	937.029	8797.68	163.801	352.048	162.573	356.111	337.992	341.451	344.173	338.986	8192	-8191	8192	8192	254	
77127.516	1	1	0	0	4709.89	4896.91	4409.3	9.88226	3492.75	1653.83	514.435	4979.82	6918.26	7916.28	6685.57	56.6106	5084.79	2637.47	920.981	8749.78	163.548	352.178	161.626	339.120	338.280	342.148	346.188	339.218	8192	-8191	8192	8192	254	
77127.594	1	1	0	0	4646.09	4897.57	4351.17	10.3675	3555.62	1642.84	526.21	5101.72	6821.36	7850.04	6647.25	59.3462	5119	2632.91	906.981	8793.8	163.458	351.347	162.926	28.331	338.773	342.462	345.769	338.997	8192	-8191	8192	8192	254	
77127.641	1	1	0	0	4623.66	4947.65	4347.06	5.47387	3534.7	1623.99	536.928	5095.75	6834.44	7935.92	6679.25	60.0433	5120.81	2592.55	916.673	8794.63	163.410	351.593	162.122	358.488	338.569	342.111	345.393	339.421	8192	-8191	8192	8192	254	
77127.688	1	1	0	0	4578.39	4852.05	4424.38	3.47236	3547.44	1650.56	528.804	5094.28	6857.04	7899.42	6693.14	54.774	5117.5	2618.14	924.543	8772.76	163.705	351.356	162.978	336.410	337.725	342.736	346.501	338.828	8192	-8191	8192	8192	254	
77127.734	1	1	0	0	4677.58	4924.38	4405.34	7.00735	3484.58	1687.55	503.965	5046.32	6891.83	7890.41	6710.23	57.9087	5100.49	2635.46	928.697	8765.74	162.723	352.287	162.477	24.019	338.792	343.400	345.043	339.053	8192	-8191	8192	8192	254	
77127.781	1	1	0	0	4596.3	4868.5	4399.54	5.13082	3546.19	1619.09	504.075	5049.33	6816.51	7912.04	6699.17	55.0817	5133.9	2617.01	923.596	8782.72	163.167	351.477	162.180	66.858	338.829	342.683	345.437	338.922	8192	-8191	8192	8192	254	
77127.828	1	1	0	0	4659.89	4891.47	4363.51	9.21945	3572.75	1679.96	510.927	5115.07	6833.95	7933.05	6668.67	64.3317	5110.66	2625.99	906.322	8819.17	163.376	352.548	162.414	352.284	338.431	341.192	347.153	339.983	8192	-8191	8192	8192	254	
77127.875	1	1	0	0	4614.78	4900.19	4372.99	5.6883	3523.37	1682.88	513.086	5064.02	6833.74	7890.34	6670.18	54.2404	5118.73	2643.41	916.562	8746.01	163.185	351.829	162.082	341.056	338.853	341.870	346.580	338.733	8192	-8191	8192	8192	254	
77127.930	1	1	0	0	4629.28	4922.44	4410.28	7.86426	3543.36	1688.91	499.833	5057.05	6823.41	7914.42	6693.53	53.7163	5109.15	2653.11	904.909	8781.1	162.936	351.720	162.431	331.086	339.556	342.228	346.013	339.080	8192	-8191	8192	8192	254	
77128.000	1	1	0	0	4692.18	4881.66	4360.86	3.41644	3554.11	1672.33	525.37	5095.27	6882.45	7862.94	6652.99	64.5865	5109.14	2644.72	922.769	8808.22	163.797	351.539	162.560	216.816	338.550	342.799	343.815	338.853	8192	-8191	8192	8192	254	
77128.047	1	1	0	0	4656.23	4887.56	4349.19	2.3669	3565.48	1649.75	518.282	5092.97	6871.51	7885.81	6673.51	56.8029	5138.2	2611.54	906.413	8779.43	163.188	352.235	162.208	334.578	337.960	341.939	343.983	339.094	8192	-8191	8192	8192	254	
77128.094	1	1	0	0	4684.33	4867.8	4328.18	3.26718	3515.6	1654.15	509.119	5118.73	6860.49	7891.06	6625.96	58.9663	5079.97	2640.85	902.231	8817.69	162.925	351.571	161.657	315.606	338.398	343.143	347.922	338.990	8192	-8191	8192	8192	254	
77128.141	1	1	0	0	4638.17	4913.82	4392.36	5.71122	3599.73	1651.08	506.914	5058.44	6879.12	7902.02	6665.58	61.1779	5132.99	2631.9	910.995	8738.56	163.098	351.886	161.642	27.128	338.253	341.771	346.330	338.716	8192	-8191	8192	8192	254	
77128.188	1	1	0	0	4671.5	4813.28	4447.89	10.6799	3470.12	1678.04	511.67	5028.87	6850.93	7876.29	6696.57	60.4519	5075.22	2647.29	931.543	8791.79	163.056	351.474	162.080	344.426	339.008	341.977	344.502	339.082	8192	-8191	8192	8192	254	
77128.242	1	1	0	0	4636.28	4864.44	4344.1	0.526282	3527.15	1615.88	509.567	5023.64	6836.93	7913.75	6629.95	62.0529	5114.13	2599.4	912.183	8763.32	163.156	351.792	161.559	264.877	339.185	341.948	346.552	338.985	8192	-8191	8192	8192	254	
77128.234	1	1	0	0	4604.92	4928.71	4376.51	4.23649	3521.85	1659.19	516.171	5132.23	6846.6	7893.41	6657.09	55.3029	5136.62	2642.61	925.274	8836.98	163.303	351.937	161.970	28.740	338.379	342.138	344.786	338.920	8192	-8191	8192	8192	254	
77128.289	1	1	0	0	4650.94	4895.36	4401.14	8.0204	3518.87	1677.46	517.279	5070.34	6861.47	7955	6648.5	64.3413	5116.51	2630.57	934.957	8759.15	163.524	351.596	162.512	40.209	338.449	344.043	347.549	338.111	8192	-8191	8192	8192	254	
77128.336	1	1	0	0	4646.82	4901.43	4397.77	8.65122	3528.79	1657.86	519.656	5004.3	6886.79	7916.85	6669.37	74.6731	5096.19	2622.31	930.255	8804.31	163.633	351.934	162.247	267.443	339.077	343.772	347.137	339.047	8192	-8191	8192	8192	254	
