BOXY.EXE: ISS Imagent Data Acquisition Program Version 0.82
Ascii Record File

#ACQ INFORMATION
1  Detector Channels 
8  External MUX Channels 
4  Auxiliary Analog Channels 
5000  Waveform (CCF) Frequency (Hz)
4  Waveforms Skipped 
26  Waveforms Averaged 
1  Cycles Averaged 
8  Acquisitions per Waveform 
1  Auxiliary Digital Channels 

#Data Update Rate
20.8333  Update Rate (Hz) 
FALSE -- Use Phase Reference
FALSE -- Use Continuous Phase Reference
FALSE -- Use Intensity Reference
FALSE -- Use Continuous Intensity Reference

#FILE INFORMATION
TRUE -- External MUX Channel results are PARSED.
FALSE -- AC DC and Phase are NOT grouped.
TRUE -- Companion Program Settings File CREATED.
FALSE -- AC data not excluded
FALSE -- DC data not excluded
FALSE -- Phase data not excluded
FALSE -- Auxillary Chn. data not excluded
Tab delimiters

#CALIBRATION STATE
FALSE -- Waveform Calibration Values NOT applied.

#WAVELENGTH DATA
Wavelength Index	Wavelength	Comp1 ExtCoef	Comp2 ExtCoef	Comp3 ExtCoef	Comp4 ExtCoef	BackGround	Weight	

1	6.600e+02	1.486e+00	3.844e+00	1.000e+00	1.000e+00	1.890e-02	1.000e+00	
2	6.900e+02	2.315e+00	1.792e+00	1.000e+00	1.000e+00	2.180e-02	1.000e+00	
3	7.500e+02	1.000e+00	1.000e+00	1.000e+00	1.000e+00	3.010e-03	1.000e+00	
4	7.750e+02	1.000e+00	1.000e+00	1.000e+00	1.000e+00	3.240e-03	1.000e+00	
5	7.850e+02	1.000e+00	1.000e+00	1.000e+00	1.000e+00	1.660e-02	1.000e+00	
6	8.000e+02	1.000e+00	1.000e+00	1.000e+00	1.000e+00	1.480e-02	1.000e+00	
7	8.250e+02	1.000e+00	1.000e+00	1.000e+00	1.000e+00	1.620e-02	1.000e+00	
8	8.300e+02	1.000e+00	1.000e+00	1.000e+00	1.000e+00	2.620e-02	1.000e+00	


#AUX CALIBRATION VALUES
Val Type	aux-1	aux-2	aux-3	aux-4	

Term	0.0000e+00	0.0000e+00	0.0000e+00	0.0000e+00	
Factor	1.0000e+00	1.0000e+00	1.0000e+00	1.0000e+00	


#WF CALIBRATION VALUES
A = Detector Channel
Val Type	A-AC1	A-AC2	A-AC3	A-AC4	A-AC5	A-AC6	A-AC7	A-AC8	A-DC1	A-DC2	A-DC3	A-DC4	A-DC5	A-DC6	A-DC7	A-DC8	A-Ph1	A-Ph2	A-Ph3	A-Ph4	A-Ph5	A-Ph6	A-Ph7	A-Ph8	

Term	0.00000e+00	0.00000e+00	0.00000e+00	0.00000e+00	0.00000e+00	0.00000e+00	0.00000e+00	0.00000e+00	0.00000e+00	0.00000e+00	0.00000e+00	0.00000e+00	0.00000e+00	0.00000e+00	0.00000e+00	0.00000e+00	-1.05892e+02	-9.99249e+01	-2.86485e+02	-2.62799e+02	-2.45797e+02	-2.48632e+02	-7.72400e+01	-7.86612e+01	
Factor	3.48934e-02	2.88771e-02	2.23541e-02	4.58344e-02	3.11822e-02	3.92311e-02	3.80806e-02	2.80088e-02	4.70955e+01	8.07534e+01	3.66973e+01	1.04434e+02	6.45565e+01	3.94082e+01	9.13796e+01	5.49806e+01	X	X	X	X	X	X	X	X	



#DISTANCE SETTINGS
A = Detector Channel
A-1	A-2	A-3	A-4	A-5	A-6	A-7	A-8	

1.5000e+00	1.5000e+00	1.5000e+00	1.5000e+00	1.5000e+00	1.5000e+00	1.5000e+00	1.5000e+00	



#ADDITIONAL SIGNAL INFORMATION
A = Detector Channel
Info. Type	A-1	A-2	A-3	A-4	A-5	A-6	A-7	A-8	

cal. block. ind.	1	1	1	1	1	1	1	1	
wavelength ind.	0	1	2	3	4	5	6	7	
weight	1.0000e+00	1.0000e+00	1.0000e+00	1.0000e+00	1.0000e+00	1.0000e+00	1.0000e+00	1.0000e+00	


#CALIBRATION BLOCK OPTICAL PROPS
Calib. Block Num.	WaveLen Index	Absorption	Scattering	

1	1	1.080e-01	9.000e+00	
1	2	1.300e-01	1.070e+01	
1	3	1.130e-01	9.400e+00	
1	4	1.210e-01	1.000e+01	
1	5	1.080e-01	9.000e+00	
1	6	1.300e-01	1.070e+01	
1	7	1.150e-01	9.600e+00	
1	8	1.330e-01	1.090e+01	

Calib. Block Num.	WaveLen Index	Absorption	Scattering	

2	1	1.120e-01	4.400e+00	
2	2	1.200e-01	5.700e+00	
2	3	1.140e-01	4.600e+00	
2	4	1.160e-01	5.100e+00	
2	5	1.120e-01	4.400e+00	
2	6	1.200e-01	5.700e+00	
2	7	1.150e-01	4.800e+00	
2	8	1.210e-01	6.000e+00	

Calib. Block Num.	WaveLen Index	Absorption	Scattering	

3	1	9.300e-02	8.700e+00	
3	2	1.010e-01	1.040e+01	
3	3	9.500e-02	9.000e+00	
3	4	9.700e-02	9.600e+00	
3	5	9.300e-02	8.700e+00	
3	6	1.010e-01	1.040e+01	
3	7	9.600e-02	9.300e+00	
3	8	1.030e-01	1.080e+01	

Calib. Block Num.	WaveLen Index	Absorption	Scattering	

4	1	1.000e-01	1.000e+01	
4	2	1.000e-01	1.000e+01	
4	3	1.000e-01	1.000e+01	
4	4	1.000e-01	1.000e+01	
4	5	1.000e-01	1.000e+01	
4	6	1.000e-01	1.000e+01	
4	7	1.000e-01	1.000e+01	
4	8	1.000e-01	1.000e+01	



#DATA BEGINS
time	group	step	mark	flag	A-AC1	A-AC2	A-AC3	A-AC4	A-AC5	A-AC6	A-AC7	A-AC8	A-DC1	A-DC2	A-DC3	A-DC4	A-DC5	A-DC6	A-DC7	A-DC8	A-Ph1	A-Ph2	A-Ph3	A-Ph4	A-Ph5	A-Ph6	A-Ph7	A-Ph8	aux-1	aux-2	aux-3	aux-4	digaux	

77570.953	1	1	0	768	3465.41	7.39382	3388.77	1522.96	507.218	4668.97	1.64895	2.63553	5229.62	50.6683	4875.94	2463.43	860.394	8155.23	50.8846	44.1154	124.937	350.650	299.499	303.665	306.255	300.214	344.154	253.575	8192	-8191	8192	8192	254	
77571.000	1	1	0	0	4353.6	4632.83	3957.67	3.75542	3326.79	1578.47	483.476	4665.6	6428.05	7438.53	6023.55	51.9471	4844.13	2483.89	868.178	8105.64	123.694	312.794	122.779	343.963	298.724	302.650	307.143	298.829	8192	-8191	8192	8192	254	
77571.047	1	1	0	0	4401.56	4546.53	4083.02	4.30855	3385.64	1564.47	481.084	4660.57	6451.79	7414.35	6186.27	55.8269	4868.1	2474.54	877.231	8100.48	124.080	312.041	122.469	7.486	299.025	303.906	303.901	298.700	8192	-8191	8192	8192	254	
77571.094	1	1	0	0	4442.99	4638.83	4005	10.5257	3353.64	1570.63	498.177	4709.95	6460.46	7467.87	6138.63	50.9375	4852.3	2482.77	889.226	8135.11	123.949	311.412	122.658	249.856	298.250	304.558	306.160	298.915	8192	-8191	8192	8192	254	
77571.164	1	1	0	0	4348.44	4579.94	4044.81	8.94004	3403.33	1598.69	487.725	4662.72	6429.59	7439.15	6187.83	50.6971	4872.01	2480.58	870.221	8152.42	123.596	311.950	121.803	279.115	298.713	303.083	305.502	299.161	8192	-8191	8192	8192	254	
77571.211	1	1	0	0	4420.84	4630.82	4090.2	8.6972	3304.53	1601.71	482.181	4739.91	6499.44	7466.16	6207.83	50.9423	4846.27	2491.69	866.615	8123.68	124.184	310.767	121.875	321.340	299.454	302.641	306.379	299.562	8192	-8191	8192	8192	254	
77571.266	1	1	0	0	4345.14	4610.64	4018.13	5.66072	3429.52	1564.89	489.769	4690.26	6449.84	7437.79	6160.07	54.2885	4914	2489.78	856.899	8114.08	123.583	312.180	122.712	345.706	299.173	302.945	304.953	299.506	8192	-8191	8192	8192	254	
77571.312	1	1	0	0	4408.27	4617.7	4108.94	3.12869	3349.87	1579.91	487.044	4637.91	6437.62	7446.34	6232.52	52.5433	4853.68	2476.03	876.548	8089.48	123.856	312.160	122.463	324.561	299.241	302.766	306.333	298.733	8192	-8191	8192	8192	254	
77571.359	1	1	0	0	4366.77	4668.56	4058.84	12.4834	3332.67	1592.31	485.148	4667.52	6443.17	7449.03	6184.97	52.5288	4890.1	2475.49	853.428	8115.55	123.239	311.633	122.623	296.100	299.398	302.989	306.839	300.396	8192	-8191	8192	8192	254	
77571.406	1	1	0	0	4416.36	4649.07	3949.08	1.25333	3332.08	1539.64	473.018	4711.38	6482.78	7426.07	6209.67	48.524	4831.71	2460.41	840.731	8159.72	123.717	312.829	123.270	82.012	298.980	302.828	305.419	299.816	8192	-8191	8192	8192	254	
77571.453	1	1	0	0	4402.66	4601.78	4046.25	5.42306	3334.34	1602.85	474.485	4656.11	6468.92	7437.35	6212.5	52.6202	4838.39	2505.83	850.308	8088.74	123.997	311.853	122.608	323.495	299.039	301.929	305.482	298.615	8192	-8191	8192	8192	254	
77571.500	1	1	0	0	4404.19	4637.45	4096.49	7.12723	3355.74	1582.01	473.811	4666.48	6465.74	7433.75	6228.42	53.1394	4893.31	2501.75	853.87	8115.12	123.629	312.039	122.301	323.860	299.522	302.667	304.301	299.039	8192	-8191	8192	8192	254	
77571.570	1	1	0	0	4362.74	4656.02	4117.58	4.45207	3303.36	1544.02	473.116	4657.54	6438.15	7464	6221.9	51.3606	4821.9	2470.65	848.514	8104.41	124.245	311.784	122.190	308.828	298.841	300.701	306.023	298.684	8192	-8191	8192	8192	254	
77571.625	1	1	0	0	4387.02	4556.71	4062.49	6.41866	3342.2	1579.47	472.999	4689.45	6435.67	7432.02	6231.16	50.5433	4851.27	2491.05	853.889	8127.45	123.349	312.724	123.452	309.406	298.608	303.291	306.543	299.480	8192	-8191	8192	8192	254	
77571.672	1	1	0	0	4354.2	4603.73	4108.4	3.23145	3382.48	1563.94	500.2	4654.82	6429	7395.32	6238.72	53.6346	4877.8	2462.32	872.822	8101.05	124.151	311.451	122.386	1.098	299.826	301.900	306.392	298.941	8192	-8191	8192	8192	254	
77571.719	1	1	0	0	4384.15	4600.6	4147.23	5.03177	3382.97	1554.42	468.596	4676.66	6466.41	7443.66	6270.66	52.2308	4877.36	2486.69	840.505	8142.4	123.232	311.916	122.267	269.479	299.083	302.913	310.048	299.080	8192	-8191	8192	8192	254	
77571.719	1	1	0	0	4349.64	4567.53	4092.05	7.14942	3355.63	1634.99	514.502	4673.42	6439.28	7418.88	6283.24	49.6442	4886.95	2520.98	870.673	8121.98	124.025	311.620	121.601	346.581	299.393	303.240	304.398	298.466	8192	-8191	8192	8192	254	
77571.766	1	1	0	0	4442.04	4661.67	4106.27	10.2332	3339.4	1569.01	484.701	4625.58	6460.25	7487.99	6278.4	51.2692	4852.56	2504.28	862.101	8036.5	123.643	311.529	122.366	290.020	298.319	302.723	306.847	299.607	8192	-8191	8192	8192	254	
77571.812	1	1	1	0	4408.54	4623.08	4120.79	4.97913	3342.97	1592.84	487.205	4679.51	6478.85	7447.64	6280.99	54.5673	4837.62	2484.16	854.923	8188	123.241	311.479	122.726	243.595	299.876	302.575	307.167	299.142	8192	-8191	8192	8192	254	
77571.859	1	1	0	0	4380.79	4580.63	4087.66	6.96343	3363.61	1597.82	483.183	4682.36	6437.73	7407.8	6247.14	50.3077	4851.47	2525.3	852.601	8081	123.261	312.138	123.171	337.119	299.142	304.029	305.862	298.744	8192	-8191	8192	8192	254	
77571.938	1	1	0	0	4446.42	4590.56	4117.55	4.53876	3392.9	1561.15	469.873	4653.22	6469.17	7455.66	6235.56	52.8269	4901.58	2483.71	854.668	8101.84	123.439	310.923	122.686	352.483	298.752	302.077	304.483	299.027	8192	-8191	8192	8192	254	
77571.984	1	1	0	0	4379.45	4629.87	4015.94	4.87938	3264.02	1578.57	508.859	4690.52	6442.25	7467.55	6221.94	54.3269	4835.69	2465.27	863.529	8101.76	123.467	311.210	122.225	271.364	298.374	302.598	302.675	298.876	8192	-8191	8192	8192	254	
77572.031	1	1	0	0	4332.45	4632.2	4042.09	10.3662	3351.28	1554.77	480.214	4698.02	6461.83	7446.68	6227.61	46.1635	4849.5	2484.61	861.712	8092.82	123.329	312.199	122.167	313.393	298.618	301.510	305.361	299.094	8192	-8191	8192	8192	254	
77572.078	1	1	0	0	4365.76	4579.61	4112.87	4.22634	3362.65	1540.07	508.577	4700.87	6403.02	7421.86	6223.34	55.1154	4858.23	2472.22	869.861	8110.32	123.454	311.687	122.527	328.123	298.753	302.370	303.704	299.055	8192	-8191	8192	8192	254	
77572.125	1	1	0	0	4347.08	4618.22	4081.44	4.71738	3384.53	1606.16	485.208	4715.03	6407.04	7471.83	6269.64	57.0529	4875.54	2508.07	867.188	8152.91	124.114	311.537	122.626	315.879	299.009	303.346	306.961	298.960	8192	-8191	8192	8192	254	
77572.172	1	1	0	0	4372.27	4653.19	4075.48	5.89693	3367.17	1582.37	485.948	4642.56	6428.47	7400.03	6250.99	51.2933	4857.86	2508.26	856.24	8108.28	124.225	311.062	122.560	266.571	299.288	303.933	304.959	299.274	8192	-8191	8192	8192	254	
77572.219	1	1	0	0	4346.07	4595.63	4085.78	7.27862	3342.33	1580.62	495.564	4699.22	6394.49	7417.75	6238.98	49.0962	4828.87	2494.5	874.74	8110.76	123.977	311.318	122.485	292.788	298.347	302.798	305.057	299.576	8192	-8191	8192	8192	254	
77572.266	1	1	0	0	4362.79	4596.99	4097.85	11.6884	3305.71	1542.05	493.695	4672.49	6435.59	7476.34	6254.61	50.976	4846.25	2480.19	865.188	8137.95	123.429	312.064	123.621	318.156	298.122	302.375	307.752	299.703	8192	-8191	8192	8192	254	
77572.344	1	1	0	0	4380.91	4646.23	4160.75	6.62046	3342.98	1551.5	485.282	4687.78	6435.99	7435.32	6267.52	50.6875	4870.44	2459.02	859.769	8081.63	124.184	311.090	122.232	281.146	298.667	302.794	305.777	299.064	8192	-8191	8192	8192	254	
77572.391	1	1	0	0	4412.95	4627.87	4048.13	8.6563	3420.37	1554.25	487.452	4676.01	6493.97	7479.29	6237.31	54.1875	4895.02	2467.26	863.904	8101.76	123.592	311.947	121.202	223.442	300.071	302.461	304.699	298.643	8192	-8191	8192	8192	254	
77572.438	1	1	0	0	4464.33	4602.78	4061.25	4.30046	3395.76	1501.49	487.019	4737.54	6498.76	7441.88	6225.95	53.0192	4874.5	2459.39	853.264	8140.62	123.385	311.326	121.878	235.844	298.156	302.815	302.374	299.321	8192	-8191	8192	8192	254	
77572.484	1	1	0	0	4283.6	4633.18	4141.72	1.93798	3405.92	1559.88	499.024	4671.82	6381.12	7460.51	6295.2	56.851	4859.65	2489.51	874.707	8149.93	123.427	312.354	122.890	258.983	298.459	302.526	303.813	299.154	8192	-8191	8192	8192	254	
77572.484	1	1	0	0	4363.36	4544.27	4088.95	6.28196	3337.01	1566.78	497.511	4757.83	6445.49	7395.43	6270.62	55.1538	4835.52	2474.07	869.745	8149.23	123.787	311.563	122.826	337.554	299.572	302.070	308.243	298.982	8192	-8191	8192	8192	254	
77572.531	1	1	0	0	4338.82	4584.58	4163.37	5.52057	3412.07	1577.51	466.004	4626.16	6451.47	7422.64	6265.41	52.6827	4893.79	2509.48	853.077	8092.46	124.023	311.054	123.296	268.927	298.246	302.868	304.364	299.711	8192	-8191	8192	8192	254	
77572.578	1	1	0	0	4417.02	4627.31	4056.12	1.86955	3414.43	1569.49	484.553	4748.86	6489.53	7476.07	6238.5	61.2212	4890.54	2488.83	858.409	8162.73	123.460	311.778	122.431	324.093	299.187	303.923	305.906	298.520	8192	-8191	8192	8192	254	
77572.633	1	1	0	0	4374.13	4622.52	4055.11	7.24139	3287.63	1567.05	490.228	4639.18	6470.15	7413.15	6226.08	48.4327	4791.68	2475.58	857.745	8124.26	124.707	312.117	122.344	293.617	298.559	302.056	304.479	299.744	8192	-8191	8192	8192	254	
77572.703	1	1	0	0	4401.63	4587.92	4081.53	5.17265	3354.41	1556.58	495.399	4685.84	6459.52	7437.6	6277.42	56.7019	4854.24	2495.09	863.74	8102.32	123.542	311.593	122.749	324.390	297.932	302.758	307.795	299.048	8192	-8191	8192	8192	254	
77572.750	1	1	0	0	4400.65	4568.61	4062.52	6.47224	3352.84	1553.51	471.128	4670.3	6489.32	7374.1	6242.6	56.7548	4876.01	2480.84	855.745	8136.75	124.876	311.057	122.419	236.646	299.180	303.472	304.933	299.174	8192	-8191	8192	8192	254	
77572.797	1	1	0	0	4354.06	4641.47	4133.76	5.48225	3314.36	1572.66	476.648	4716.14	6403.63	7491.78	6258.69	52.7596	4840.04	2473.94	845.24	8174.09	123.955	311.794	122.933	265.405	300.001	303.591	305.366	298.921	8192	-8191	8192	8192	254	
77572.844	1	1	0	0	4461.62	4593.3	4139.13	0.822193	3344.69	1580.17	481.467	4770.92	6472.39	7437.33	6249.06	51.8606	4869.53	2497.48	858.375	8092.42	124.046	311.166	122.485	125.546	299.076	301.633	305.631	299.460	8192	-8191	8192	8192	254	
77572.891	1	1	0	0	4397.85	4604.07	4109.69	9.55247	3345.21	1575.92	494.127	4756.52	6455.04	7397.46	6270.28	51.9808	4870.99	2501.93	869.745	8173.32	123.640	311.251	121.651	359.963	299.294	303.225	308.245	299.867	8192	-8191	8192	8192	254	
77572.945	1	1	0	0	4401.58	4658.87	4141.93	10.2852	3307.18	1560.59	489.976	4707.27	6482.85	7449.01	6243.56	56.7596	4822.93	2494.44	854.606	8086.77	123.682	311.506	122.028	317.439	299.750	303.083	305.759	300.223	8192	-8191	8192	8192	254	
77572.992	1	1	0	0	4381.32	4654.91	4116.13	4.00221	3378.06	1541	482.847	4663.01	6448.89	7478.26	6238.6	56.2981	4843.69	2480.28	856.087	8110.68	124.289	311.962	122.756	359.691	298.568	303.652	302.919	299.627	8192	-8191	8192	8192	254	
77573.039	1	1	0	0	4430.14	4645.35	4129.02	4.44485	3377.63	1559.5	484.324	4637.88	6471.5	7462.21	6257.51	56.5481	4872.97	2489.08	866.471	8037.61	123.696	311.845	122.709	347.168	299.392	301.337	307.832	299.080	8192	-8191	8192	8192	254	
77573.109	1	1	0	0	4368.32	4673.48	4127.24	8.46264	3336.43	1617.6	501.203	4732.67	6462.18	7479.59	6268.37	57.9567	4880.89	2503.63	866.76	8164.01	123.416	311.580	123.175	283.854	299.738	303.573	304.522	298.872	8192	-8191	8192	8192	254	
77573.156	1	1	0	0	4334.92	4592.61	4146.19	9.57022	3337.37	1564.2	483.123	4689.8	6445.62	7444.43	6255.38	55.4423	4832.67	2470.75	857.981	8125.37	123.713	312.235	123.073	353.538	299.558	303.142	306.996	299.570	8192	-8191	8192	8192	254	
77573.203	1	1	0	0	4451.04	4576.11	4074.03	3.9114	3381.13	1561.8	469.213	4643.31	6493.43	7435.01	6245.31	46.4856	4897.22	2484.66	846.356	8090.15	123.584	311.604	122.100	351.341	298.916	301.785	306.802	298.526	8192	-8191	8192	8192	254	
77573.258	1	1	0	0	4300.08	4605.43	4052.28	6.45342	3434.32	1568.23	500.939	4589.79	6411.18	7434.15	6215.66	54.4519	4896.62	2469.51	874.596	8065.22	123.934	311.971	122.377	331.151	298.165	302.452	305.564	299.838	8192	-8191	8192	8192	254	
77573.258	1	1	0	0	4419.25	4569	4180.1	6.15887	3347.25	1570.04	485.942	4699.59	6466.08	7438.89	6290.89	53.4712	4852.91	2495.53	863.269	8097	123.693	311.244	122.432	292.573	298.878	302.253	307.492	299.555	8192	-8191	8192	8192	254	
77573.305	1	1	0	0	4411.18	4631.72	4062.84	3.38113	3367.58	1590.55	504.81	4766.74	6477.65	7413.75	6229.78	54.2885	4869.77	2506.62	872.413	8149.18	123.413	312.171	122.133	271.479	298.989	302.033	306.304	299.605	8192	-8191	8192	8192	254	
77573.352	1	1	0	0	4396.05	4720.5	4132.51	7.43261	3409.18	1595.26	486.966	4621.33	6496.59	7483.19	6272.25	58.2452	4867.39	2500.58	843.851	8093.14	123.505	311.542	122.442	265.927	298.585	302.704	304.396	299.214	8192	-8191	8192	8192	254	
77573.398	1	1	0	0	4349.02	4617.13	4162.45	4.45045	3378.52	1596.58	472.437	4676.85	6446.67	7444.73	6278.69	59.2596	4874.14	2493.19	858.236	8109.75	123.457	311.468	122.695	261.462	298.916	300.366	308.854	298.815	8192	-8191	8192	8192	254	
77573.469	1	1	0	0	4370.59	4644.24	4111.72	11.4814	3333.26	1536.39	505.47	4642.52	6448.76	7431.55	6277.78	56.8606	4843.91	2453.83	885.264	8106.05	123.881	311.591	122.243	310.506	298.847	302.205	305.610	299.014	8192	-8191	8192	8192	254	
77573.516	1	1	0	0	4332.91	4632.2	4156.23	5.47751	3396.27	1577.96	509.137	4682.4	6412.14	7453.51	6279.89	61.6827	4855.42	2503.82	858.034	8107.87	124.371	311.970	122.685	333.331	299.711	303.775	304.997	299.571	8192	-8191	8192	8192	254	
77573.570	1	1	0	0	4395.98	4635	4048.63	9.5908	3389.88	1568.04	471.694	4672.23	6448.58	7522.16	6267.83	69.6106	4930.2	2513.47	877.692	8109.97	124.370	312.149	122.521	312.925	298.847	303.068	306.533	299.192	8192	-8191	8192	8192	254	
77573.617	1	1	0	0	4383.38	4577.67	4128.33	6.7787	3321.62	1592.26	486.592	4744.43	6473.04	7445.65	6278.95	75.149	4865.36	2503.05	875.389	8148.97	123.246	312.532	122.171	261.989	298.694	302.729	306.466	298.869	8192	-8191	8192	8192	254	
77573.664	1	1	0	0	4398.72	4641.37	4157.84	4.4036	3348.59	1543.58	507.151	4644.5	6475.03	7536.79	6316.07	77.399	4880.64	2487.76	887.534	8098.2	123.158	312.149	122.646	18.444	299.317	302.302	306.636	299.818	8192	-8191	8192	8192	254	
77573.711	1	1	0	0	4325.38	4644.58	4136.02	5.75134	3329.06	1558.62	493.166	4657.09	6449.43	7495.13	6304.16	67.1202	4841.93	2514.4	874.452	8080.01	123.914	311.441	121.751	253.324	299.545	302.741	305.367	300.226	8192	-8191	8192	8192	254	
77573.758	1	1	0	0	4438.85	4650.98	4061.08	6.41516	3351.7	1592.25	495.299	4708.82	6505.69	7501.62	6254.5	58.8606	4872.23	2504.94	868.188	8170.02	122.752	311.385	122.495	233.718	299.314	302.036	305.080	298.819	8192	-8191	8192	8192	254	
77573.805	1	1	0	0	4445.48	4627.33	4098.7	2.98584	3335.78	1600.07	468.577	4668.48	6511.88	7488.12	6260.28	53.0529	4872.09	2484.62	861.293	8104.95	123.173	312.061	121.777	58.040	299.289	301.557	303.241	299.341	8192	-8191	8192	8192	254	
77573.883	1	1	0	0	4325.98	4594.77	4106.93	7.24186	3394.39	1561.26	479.109	4723.51	6458.52	7497.34	6258.93	57.3558	4877.63	2490.88	843.409	8159.95	123.860	311.842	122.620	324.979	299.179	303.045	308.797	300.695	8192	-8191	8192	8192	254	
77573.930	1	1	0	0	4385.71	4567.93	4106.27	6.70162	3363.99	1563.85	509.412	4649.19	6462.81	7407.18	6252.81	52.9327	4855.99	2496.47	879.865	8124.67	123.484	312.030	123.100	324.748	299.309	301.866	305.571	298.780	8192	-8191	8192	8192	254	
77573.977	1	1	0	0	4322.94	4637.78	4090.31	7.20674	3328.3	1549.27	465.73	4691.44	6451.33	7435.33	6252.49	57.7933	4842.25	2500.3	865.101	8124.03	124.332	311.785	122.699	320.877	298.708	301.954	306.423	298.891	8192	-8191	8192	8192	254	
77574.023	1	1	0	0	4307.21	4640.81	4064.58	8.8655	3335.48	1548.08	490.769	4660.66	6436.42	7443.61	6216.99	68.4423	4860.94	2493	868.25	8126.8	123.358	311.326	122.871	314.004	298.799	303.353	303.059	299.736	8192	-8191	8192	8192	254	
77574.023	1	1	0	0	4374.28	4619.54	4069.67	8.09627	3368.99	1550.46	478.934	4672.88	6483.09	7421.72	6275.46	73.4471	4884.61	2471.67	867.418	8146.84	123.451	312.361	122.607	299.305	299.384	301.980	307.309	298.894	8192	-8191	8192	8192	254	
77574.070	1	1	0	0	4382.35	4554.25	4135.37	5.91825	3308.48	1581.43	479.833	4596.72	6469	7431.5	6277.16	77.3317	4839.98	2513.28	886.736	8108.25	123.448	312.225	122.201	325.568	298.940	302.670	303.248	299.560	8192	-8191	8192	8192	254	
77574.117	1	1	0	0	4383.82	4654.39	4092.71	8.07157	3370.1	1549.04	447.903	4770.72	6505.55	7468.78	6293.01	83.4183	4885.15	2509.45	878.048	8222.15	124.363	311.283	122.027	79.538	299.046	301.867	306.315	299.155	8192	-8191	8192	8192	254	
