BOXY.EXE: ISS Imagent Data Acquisition Program Version 0.82
Ascii Record File

#ACQ INFORMATION
1  Detector Channels 
8  External MUX Channels 
4  Auxiliary Analog Channels 
5000  Waveform (CCF) Frequency (Hz)
4  Waveforms Skipped 
26  Waveforms Averaged 
1  Cycles Averaged 
8  Acquisitions per Waveform 
1  Auxiliary Digital Channels 

#Data Update Rate
20.8333  Update Rate (Hz) 
FALSE -- Use Phase Reference
FALSE -- Use Continuous Phase Reference
FALSE -- Use Intensity Reference
FALSE -- Use Continuous Intensity Reference

#FILE INFORMATION
TRUE -- External MUX Channel results are PARSED.
FALSE -- AC DC and Phase are NOT grouped.
TRUE -- Companion Program Settings File CREATED.
FALSE -- AC data not excluded
FALSE -- DC data not excluded
FALSE -- Phase data not excluded
FALSE -- Auxillary Chn. data not excluded
Tab delimiters

#CALIBRATION STATE
FALSE -- Waveform Calibration Values NOT applied.

#WAVELENGTH DATA
Wavelength Index	Wavelength	Comp1 ExtCoef	Comp2 ExtCoef	Comp3 ExtCoef	Comp4 ExtCoef	BackGround	Weight	

1	6.600e+02	1.486e+00	3.844e+00	1.000e+00	1.000e+00	1.890e-02	1.000e+00	
2	6.900e+02	2.315e+00	1.792e+00	1.000e+00	1.000e+00	2.180e-02	1.000e+00	
3	7.500e+02	1.000e+00	1.000e+00	1.000e+00	1.000e+00	3.010e-03	1.000e+00	
4	7.750e+02	1.000e+00	1.000e+00	1.000e+00	1.000e+00	3.240e-03	1.000e+00	
5	7.850e+02	1.000e+00	1.000e+00	1.000e+00	1.000e+00	1.660e-02	1.000e+00	
6	8.000e+02	1.000e+00	1.000e+00	1.000e+00	1.000e+00	1.480e-02	1.000e+00	
7	8.250e+02	1.000e+00	1.000e+00	1.000e+00	1.000e+00	1.620e-02	1.000e+00	
8	8.300e+02	1.000e+00	1.000e+00	1.000e+00	1.000e+00	2.620e-02	1.000e+00	


#AUX CALIBRATION VALUES
Val Type	aux-1	aux-2	aux-3	aux-4	

Term	0.0000e+00	0.0000e+00	0.0000e+00	0.0000e+00	
Factor	1.0000e+00	1.0000e+00	1.0000e+00	1.0000e+00	


#WF CALIBRATION VALUES
A = Detector Channel
Val Type	A-AC1	A-AC2	A-AC3	A-AC4	A-AC5	A-AC6	A-AC7	A-AC8	A-DC1	A-DC2	A-DC3	A-DC4	A-DC5	A-DC6	A-DC7	A-DC8	A-Ph1	A-Ph2	A-Ph3	A-Ph4	A-Ph5	A-Ph6	A-Ph7	A-Ph8	

Term	0.00000e+00	0.00000e+00	0.00000e+00	0.00000e+00	0.00000e+00	0.00000e+00	0.00000e+00	0.00000e+00	0.00000e+00	0.00000e+00	0.00000e+00	0.00000e+00	0.00000e+00	0.00000e+00	0.00000e+00	0.00000e+00	-1.05892e+02	-9.99249e+01	-2.86485e+02	-2.62799e+02	-2.45797e+02	-2.48632e+02	-7.72400e+01	-7.86612e+01	
Factor	3.48934e-02	2.88771e-02	2.23541e-02	4.58344e-02	3.11822e-02	3.92311e-02	3.80806e-02	2.80088e-02	4.70955e+01	8.07534e+01	3.66973e+01	1.04434e+02	6.45565e+01	3.94082e+01	9.13796e+01	5.49806e+01	X	X	X	X	X	X	X	X	



#DISTANCE SETTINGS
A = Detector Channel
A-1	A-2	A-3	A-4	A-5	A-6	A-7	A-8	

1.5000e+00	1.5000e+00	1.5000e+00	1.5000e+00	1.5000e+00	1.5000e+00	1.5000e+00	1.5000e+00	



#ADDITIONAL SIGNAL INFORMATION
A = Detector Channel
Info. Type	A-1	A-2	A-3	A-4	A-5	A-6	A-7	A-8	

cal. block. ind.	1	1	1	1	1	1	1	1	
wavelength ind.	0	1	2	3	4	5	6	7	
weight	1.0000e+00	1.0000e+00	1.0000e+00	1.0000e+00	1.0000e+00	1.0000e+00	1.0000e+00	1.0000e+00	


#CALIBRATION BLOCK OPTICAL PROPS
Calib. Block Num.	WaveLen Index	Absorption	Scattering	

1	1	1.080e-01	9.000e+00	
1	2	1.300e-01	1.070e+01	
1	3	1.130e-01	9.400e+00	
1	4	1.210e-01	1.000e+01	
1	5	1.080e-01	9.000e+00	
1	6	1.300e-01	1.070e+01	
1	7	1.150e-01	9.600e+00	
1	8	1.330e-01	1.090e+01	

Calib. Block Num.	WaveLen Index	Absorption	Scattering	

2	1	1.120e-01	4.400e+00	
2	2	1.200e-01	5.700e+00	
2	3	1.140e-01	4.600e+00	
2	4	1.160e-01	5.100e+00	
2	5	1.120e-01	4.400e+00	
2	6	1.200e-01	5.700e+00	
2	7	1.150e-01	4.800e+00	
2	8	1.210e-01	6.000e+00	

Calib. Block Num.	WaveLen Index	Absorption	Scattering	

3	1	9.300e-02	8.700e+00	
3	2	1.010e-01	1.040e+01	
3	3	9.500e-02	9.000e+00	
3	4	9.700e-02	9.600e+00	
3	5	9.300e-02	8.700e+00	
3	6	1.010e-01	1.040e+01	
3	7	9.600e-02	9.300e+00	
3	8	1.030e-01	1.080e+01	

Calib. Block Num.	WaveLen Index	Absorption	Scattering	

4	1	1.000e-01	1.000e+01	
4	2	1.000e-01	1.000e+01	
4	3	1.000e-01	1.000e+01	
4	4	1.000e-01	1.000e+01	
4	5	1.000e-01	1.000e+01	
4	6	1.000e-01	1.000e+01	
4	7	1.000e-01	1.000e+01	
4	8	1.000e-01	1.000e+01	



#DATA BEGINS
time	group	step	mark	flag	A-AC1	A-AC2	A-AC3	A-AC4	A-AC5	A-AC6	A-AC7	A-AC8	A-DC1	A-DC2	A-DC3	A-DC4	A-DC5	A-DC6	A-DC7	A-DC8	A-Ph1	A-Ph2	A-Ph3	A-Ph4	A-Ph5	A-Ph6	A-Ph7	A-Ph8	aux-1	aux-2	aux-3	aux-4	digaux	

76997.906	1	1	0	768	3724.39	7.63348	3524.48	1602.16	531.258	4897.53	6.13446	4.74302	5616.97	86.6875	5099.78	2628.98	928.144	8550.92	91.2163	76.2308	94.295	262.131	268.455	272.575	274.458	268.695	97.010	237.863	8192	-8191	8192	8192	254	
76997.953	1	1	0	0	4617.85	4912.36	4201.31	9.2814	3545.64	1635.48	520.826	4953.36	6831.51	7886.31	6435.38	86.8125	5082.08	2630.06	948.106	8550.01	93.096	281.747	92.493	293.359	267.922	271.629	275.079	268.766	8192	-8191	8192	8192	254	
76998.008	1	1	0	0	4632.13	4809.12	4301.04	6.97064	3538.6	1657.49	503.061	4898.7	6823.03	7855.46	6511.4	87.6442	5128.99	2624.05	933.38	8531.25	92.781	280.844	91.980	12.148	268.445	272.412	274.548	268.548	8192	-8191	8192	8192	254	
76998.055	1	1	0	0	4570.68	4930.72	4190.69	4.34809	3455.89	1676.68	503.058	4900.92	6788.8	7918.51	6467.97	90.6779	5071.55	2658	929.538	8601.89	93.119	281.215	91.847	276.544	267.769	271.964	274.271	268.430	8192	-8191	8192	8192	254	
76998.125	1	1	0	0	4567.32	4846.89	4297.48	8.10972	3544.77	1631.43	516.223	4968.16	6797.11	7838.85	6596.75	87.0769	5107.55	2624.79	927.279	8638.05	93.282	281.477	91.067	273.729	268.290	271.631	274.168	268.700	8192	-8191	8192	8192	254	
76998.172	1	1	0	0	4676.23	4913.06	4246.72	1.26573	3518.67	1670.68	486	4945.77	6861.65	7903.27	6547.99	90.6683	5120.33	2639.59	919.865	8575.32	93.188	282.167	92.475	177.502	268.897	272.258	275.195	268.892	8192	-8191	8192	8192	254	
76998.219	1	1	0	0	4558.19	4829.49	4294.66	7.01447	3416.15	1625.91	513.215	4973.29	6822.76	7843.72	6565.64	93.2115	5053.69	2622.45	922.837	8576.99	93.155	281.840	91.970	258.237	268.920	273.167	273.980	268.150	8192	-8191	8192	8192	254	
76998.266	1	1	0	0	4614.98	4846.21	4311.91	5.18094	3477.98	1591.54	497.026	4895.62	6836.26	7813.05	6574.41	95.9808	5099.97	2598.48	907.25	8549.5	93.974	281.333	91.685	257.848	269.234	272.145	276.034	268.623	8192	-8191	8192	8192	254	
76998.312	1	1	0	0	4585.62	4727.81	4300.85	5.38207	3516.33	1729.1	504.376	4910.7	6817.43	7750.77	6619.36	88.3317	5064.49	2674	920.389	8559.7	93.710	281.891	91.923	176.515	268.307	272.157	273.888	269.416	8192	-8191	8192	8192	254	
76998.367	1	1	0	0	4574.36	4865.27	4314.86	2.03872	3440.13	1611.72	514.431	4874.41	6793.08	7892.75	6633.52	95.8029	5063.69	2600.3	936.072	8582.4	93.635	282.040	91.026	191.176	267.842	273.299	277.334	268.708	8192	-8191	8192	8192	254	
76998.414	1	1	0	0	4574.45	4879.73	4311.11	3.58423	3483.73	1604.59	526.148	4935.02	6786.65	7848.24	6626.48	86.8702	5118.49	2627.26	937.894	8571.76	93.652	282.391	92.150	246.426	268.968	272.888	274.581	269.226	8192	-8191	8192	8192	254	
76998.461	1	1	0	0	4599.99	4777.47	4350.84	4.24334	3501.54	1600.4	517.712	4946.94	6782.47	7821.76	6597.45	81.774	5085.88	2602.28	939.466	8599.94	93.059	281.464	91.948	303.138	268.736	271.457	274.163	269.120	8192	-8191	8192	8192	254	
76998.531	1	1	0	0	4579.41	4887.3	4360.56	8.65688	3433.5	1639.4	504.05	4940.04	6776.98	7880.07	6654.22	83.0865	5059.46	2606.79	921.87	8552.46	93.392	281.322	92.271	264.445	268.783	271.766	276.034	268.888	8192	-8191	8192	8192	254	
76998.578	1	1	0	0	4587.02	4805.53	4349.9	8.60777	3501.7	1634.88	506.671	4947.75	6785.4	7844.2	6662.59	95.0192	5106.71	2607.89	929.986	8530.72	92.925	281.266	92.632	334.901	268.965	273.198	275.364	268.313	8192	-8191	8192	8192	254	
76998.633	1	1	0	0	4559.83	4863.46	4318.33	9.75174	3507.14	1612.26	495.87	4887.17	6806.53	7862.39	6610.5	88.2212	5112.21	2609.87	923.005	8544.66	93.592	281.913	92.118	302.655	269.047	271.694	275.748	268.607	8192	-8191	8192	8192	254	
76998.680	1	1	0	0	4537.79	4895.43	4342.26	5.87974	3492.82	1659.69	541.487	4946.23	6777.31	7867.13	6611.27	85.274	5124	2651.83	943.236	8579.18	93.606	281.642	92.637	262.356	268.523	272.447	273.713	268.487	8192	-8191	8192	8192	254	
76998.680	1	1	0	0	4625.56	4829.54	4289.77	5.67004	3545.35	1695.97	521.432	4935.98	6838.12	7833.5	6597.5	87.6058	5095.67	2656.37	933.726	8542.03	92.867	281.775	92.264	341.972	268.982	271.227	277.248	268.158	8192	-8191	8192	8192	254	
76998.727	1	1	0	0	4519.97	4805.4	4346.63	12.7475	3498.85	1632.62	517.534	4909.19	6800.51	7819.09	6666.62	88.4567	5117.39	2641.13	936.692	8573.02	92.948	280.412	92.821	351.149	268.462	273.367	274.047	268.751	8192	-8191	8192	8192	254	
76998.773	1	1	0	0	4641.95	4880.21	4336.05	4.01895	3495.48	1636.21	526.067	4918.02	6821.93	7897.07	6603.92	82.7981	5083.76	2622.84	921.149	8558.18	93.365	281.360	92.455	336.586	268.518	271.609	277.092	268.537	8192	-8191	8192	8192	254	
76998.820	1	1	0	0	4592.37	4828.93	4322.72	9.7721	3516.62	1615.54	520.408	4942.1	6808.58	7842.43	6628.88	86.8365	5133.1	2585.68	924.202	8563.09	92.896	282.713	91.452	244.447	267.929	272.058	274.764	269.845	8192	-8191	8192	8192	254	
76998.891	1	1	0	0	4565.26	4843.81	4302.71	13.5239	3474.48	1648.49	504.786	4968.26	6761.57	7825.98	6624.89	82.1827	5091.13	2614.71	917.832	8618.04	93.453	281.902	92.153	273.042	269.564	272.991	272.921	268.512	8192	-8191	8192	8192	254	
76998.938	1	1	0	0	4616	4850.87	4328.19	4.19426	3486.36	1656.37	508.098	4986.53	6815.93	7855.68	6623.25	90.0192	5109.64	2604.27	924.712	8575.9	92.579	281.706	92.214	325.627	267.707	272.783	275.897	268.629	8192	-8191	8192	8192	254	
76998.992	1	1	1	0	4630.06	4810.2	4321.62	4.64053	3530.72	1638.95	517.32	4865.95	6800.95	7816.19	6621.62	88.524	5111.01	2619.31	930.423	8575.44	93.911	281.810	91.944	227.649	267.817	273.515	276.031	269.423	8192	-8191	8192	8192	254	
76999.039	1	1	0	0	4601.36	4881.59	4431.86	3.71557	3493.66	1621.13	508.423	4899.96	6797.98	7900.91	6710.98	92.1298	5110.68	2631.83	912.803	8570.26	93.359	280.983	92.027	259.667	269.123	271.577	273.376	268.902	8192	-8191	8192	8192	254	
76999.086	1	1	0	0	4529.15	4829.17	4361.2	4.13924	3448.56	1633.58	511.848	4960.86	6762.83	7880.51	6664.66	84.75	5057.25	2637.19	918.173	8544.25	93.191	280.540	92.379	172.145	269.321	271.520	274.452	268.460	8192	-8191	8192	8192	254	
76999.133	1	1	0	0	4530.05	4906.95	4328.79	8.70679	3501.65	1648.41	532.862	4919.39	6762.21	7873.72	6617	87.851	5081.43	2608.81	933.572	8536.29	93.970	281.209	91.998	284.138	269.177	271.854	275.992	268.962	8192	-8191	8192	8192	254	
76999.180	1	1	0	0	4607.62	4839.84	4341.13	6.2728	3416.96	1640.45	519.52	4931.23	6806	7883.05	6657.63	86.1538	5073.35	2623.52	940.899	8538.48	93.098	281.689	91.518	258.680	268.549	272.118	273.446	269.661	8192	-8191	8192	8192	254	
76999.227	1	1	0	0	4664.24	4845.17	4325.88	3.72193	3513.58	1638.08	528.813	4992.45	6863.07	7891.39	6602.67	90.875	5091.17	2631.62	921.625	8617.55	92.487	281.182	91.845	311.137	268.555	271.666	275.421	268.822	8192	-8191	8192	8192	254	
76999.305	1	1	0	0	4589.65	4892.14	4320.55	14.8989	3542.21	1619.77	526.487	4965.68	6773.23	7890.64	6610.94	87.4904	5151.34	2619.67	922.745	8638.29	93.386	280.779	91.820	286.323	268.700	271.250	273.215	268.189	8192	-8191	8192	8192	254	
76999.352	1	1	0	0	4637.67	4864.55	4339.8	0.760669	3482.41	1655.72	510.887	4975.61	6811	7879.01	6635.33	88.101	5070.05	2638.56	924.774	8612.73	93.482	281.702	91.528	288.924	268.288	272.475	275.602	269.079	8192	-8191	8192	8192	254	
76999.398	1	1	0	0	4500.05	4744.99	4264.43	5.94613	3506.79	1633.45	508.058	4902.93	6763.22	7831.55	6615.33	84.5769	5113.46	2619.75	932.168	8554.75	93.096	282.413	92.492	318.903	268.813	270.636	275.861	268.989	8192	-8191	8192	8192	254	
76999.445	1	1	0	0	4624.76	4787.58	4388.48	3.07409	3489.17	1632.14	501.031	4904.61	6843.93	7862.03	6649.96	93.9375	5083.41	2620.08	933.938	8552.98	93.107	281.491	92.167	69.824	268.325	271.999	272.822	268.307	8192	-8191	8192	8192	254	
76999.445	1	1	0	0	4606.6	4844.46	4364.8	5.87689	3517.32	1619.67	514.903	4861.41	6821.34	7868.79	6656.67	90.8798	5089.42	2600.71	925.793	8526.6	93.684	281.507	91.328	335.097	268.572	272.672	276.725	269.622	8192	-8191	8192	8192	254	
76999.492	1	1	0	0	4568.14	4789.84	4460.11	9.36005	3494.18	1648.22	490.975	4982.52	6777.7	7794.38	6704.06	88.1106	5112.03	2630.98	931.375	8558.95	93.707	281.963	92.400	285.379	268.198	272.617	276.565	268.139	8192	-8191	8192	8192	254	
76999.562	1	1	0	0	4624.36	4848.94	4322.49	3.65019	3490.36	1657.56	496.468	4945	6874.61	7852.98	6601.61	85.6298	5067.42	2620.2	918.091	8576.16	93.725	281.895	92.524	271.457	267.215	271.549	274.694	267.875	8192	-8191	8192	8192	254	
76999.609	1	1	0	0	4591.1	4881.02	4281.09	4.56434	3477.1	1654.57	517.23	4981.02	6782.38	7872.42	6593.82	82.9423	5074.41	2642.27	920.822	8608.29	93.473	281.241	91.453	307.201	268.157	271.788	275.277	269.039	8192	-8191	8192	8192	254	
76999.664	1	1	0	0	4576.84	4815.95	4337.97	11.6954	3487.68	1665.06	525.701	4945.49	6779.72	7830.13	6650.25	86.226	5094.25	2627.6	929.75	8531.36	93.147	282.362	91.369	285.246	268.837	271.269	274.540	269.547	8192	-8191	8192	8192	254	
76999.711	1	1	0	0	4620.83	4802.21	4366.82	8.7126	3482.84	1673.34	514.809	4856.86	6821.84	7829.59	6691.15	83.4327	5110.71	2650.74	935.053	8533.15	93.276	281.745	92.218	327.479	268.662	273.632	275.316	267.627	8192	-8191	8192	8192	254	
76999.758	1	1	0	0	4547.88	4847.16	4346.18	7.69372	3467.29	1657.66	526.488	4923.81	6773.47	7857.83	6644.9	88.5288	5072.39	2641.35	954.567	8581.86	93.112	281.838	92.025	305.165	268.544	271.941	275.574	269.249	8192	-8191	8192	8192	254	
76999.805	1	1	0	0	4622.21	4859.82	4372.3	8.86064	3482.37	1666.27	500.726	4952.03	6807.02	7861.2	6669.06	82.5096	5072.07	2628.69	931.346	8570.35	93.120	281.186	91.954	284.363	269.006	271.265	272.954	268.623	8192	-8191	8192	8192	254	
76999.852	1	1	0	0	4553.1	4940.94	4304.3	4.21204	3548.7	1653.97	508.214	4967.16	6757.51	7898.27	6660.78	94.0865	5125.06	2633.23	937.212	8583.36	93.177	281.439	91.965	269.318	268.245	271.712	276.850	269.624	8192	-8191	8192	8192	254	
76999.898	1	1	0	0	4505.48	4773.21	4301	6.15901	3466.7	1700.19	528.385	4902.96	6784.05	7867.66	6607.03	84.4279	5084.93	2644.56	924.562	8562.75	93.417	280.743	91.277	330.554	268.152	272.339	275.330	269.189	8192	-8191	8192	8192	254	
76999.977	1	1	0	0	4654.9	4844.32	4323.54	7.65901	3486.22	1618.74	479.055	4867.94	6867.42	7885.88	6635.11	89.3702	5077.12	2625.71	926.188	8527.12	93.338	281.170	92.567	257.288	268.406	272.350	273.652	269.136	8192	-8191	8192	8192	254	
77000.023	1	1	0	0	4578.37	4826.74	4318.3	3.91838	3479.66	1670.39	527.106	4946.93	6817.26	7875.23	6636.43	86.1635	5075.46	2639	944.361	8574.2	93.231	281.389	91.672	274.295	268.945	271.483	274.948	268.429	8192	-8191	8192	8192	254	
77000.070	1	1	0	0	4580.7	4863.07	4307.83	1.66203	3471.41	1623.68	504.501	4977.96	6812.96	7851.12	6609.05	85.6298	5082.11	2589.09	931.428	8620.07	93.114	281.053	92.104	97.746	268.196	272.291	274.976	268.649	8192	-8191	8192	8192	254	
77000.117	1	1	0	0	4571.11	4799.52	4288.09	7.03748	3465.59	1623.99	508.603	4893.87	6769.6	7841.95	6604.75	90.5529	5104.03	2623.99	931.644	8566.99	94.503	280.992	91.546	294.743	268.772	271.305	275.031	268.894	8192	-8191	8192	8192	254	
77000.164	1	1	0	0	4648.85	4845.05	4347.96	10.5311	3443.99	1585.77	506.102	4962.52	6831.81	7824.75	6655.79	89.7356	5069.11	2619.62	921.721	8585.18	93.172	281.590	91.852	309.779	269.330	271.940	275.810	268.712	8192	-8191	8192	8192	254	
77000.211	1	1	0	0	4680.04	4882.6	4338.61	10.9999	3480.47	1638.44	509.561	4935.6	6867.46	7862.16	6634.19	88.2981	5109.69	2628.63	942.707	8559	93.239	281.355	92.217	273.187	268.577	272.991	274.162	268.546	8192	-8191	8192	8192	254	
77000.211	1	1	0	0	4522.36	4898.09	4367.53	7.18443	3435.56	1639.69	519.819	4967.49	6775.58	7922.99	6652.15	79.4231	5022.3	2648.83	921.5	8578.47	93.450	281.613	91.305	289.890	268.658	272.706	272.798	268.826	8192	-8191	8192	8192	254	
77000.258	1	1	0	0	4607.24	4906.81	4375.07	6.10119	3499.46	1670.82	515.771	4884.69	6828.44	7885.45	6666.49	85.9279	5076.41	2644.56	937.236	8553.91	92.935	281.306	92.225	333.355	268.077	272.089	275.948	268.834	8192	-8191	8192	8192	254	
77000.336	1	1	0	0	4553.86	4761.08	4396.13	8.69671	3507.02	1636.5	485.52	4896.18	6770.9	7817.88	6685.24	87.4712	5103.24	2617.98	922.952	8532.52	93.995	281.410	91.850	245.628	268.935	273.919	275.967	268.967	8192	-8191	8192	8192	254	
77000.383	1	1	0	0	4583.46	4849.05	4374.46	5.53318	3436.34	1648.32	496.606	4856.25	6780.72	7852.75	6647.68	84.6394	5077.42	2638.71	916.332	8504.16	93.636	282.127	92.387	248.970	269.001	271.722	275.654	268.240	8192	-8191	8192	8192	254	
77000.430	1	1	0	0	4598.43	4885.89	4312.99	10.9735	3509.64	1662.72	516.216	4935.73	6806.58	7884.49	6647.06	89.7019	5112.57	2647.15	942.971	8573.6	93.021	281.419	92.172	291.580	269.163	272.368	277.143	268.792	8192	-8191	8192	8192	254	
77000.477	1	1	0	0	4620.4	4875.06	4298.56	9.23416	3491.63	1652.53	500.227	4938.63	6802	7853.46	6630.34	89.8317	5109.82	2625.43	918.418	8529.12	93.478	281.587	91.314	323.150	268.977	271.418	276.007	268.514	8192	-8191	8192	8192	254	
77000.523	1	1	0	0	4602.41	4844.64	4407.43	9.04573	3440.52	1613.09	517.623	4975.63	6835.39	7863.26	6720.06	91.9471	5042.19	2641.9	938.163	8604.13	93.398	282.040	91.435	257.594	268.559	271.502	274.112	268.496	8192	-8191	8192	8192	254	
77000.570	1	1	0	0	4611.23	4803.94	4419.74	9.35918	3477.11	1664.6	495.668	4880.96	6771.6	7849.74	6649.83	87.9952	5084.63	2627.78	913.712	8579.76	93.995	280.614	92.000	327.118	269.087	273.182	274.604	268.206	8192	-8191	8192	8192	254	
77000.617	1	1	0	0	4639.1	4790.49	4279.38	4.14384	3498.98	1669.35	486.594	4928.63	6812.33	7847.16	6579.73	93.1971	5100.9	2623.87	924.389	8572.76	93.876	281.439	92.189	239.536	269.089	272.209	274.520	267.892	8192	-8191	8192	8192	254	
77000.672	1	1	0	0	4615.37	4814.59	4326.81	8.74213	3474.11	1668.26	478.386	4921.51	6767.53	7826.31	6652.52	81.2019	5082.19	2612.99	921.49	8578.16	93.425	281.261	92.322	312.366	268.829	273.912	273.625	268.877	8192	-8191	8192	8192	254	
77000.719	1	1	0	0	4606.22	4896.54	4287.21	8.54887	3474.08	1624.88	506.19	4916.78	6794.68	7858.17	6641.97	87.649	5073.25	2618.61	921.942	8580.06	93.280	281.054	92.065	281.988	269.365	272.138	274.126	268.755	8192	-8191	8192	8192	254	
77000.766	1	1	0	0	4561.62	4879.6	4297.72	7.76887	3586.12	1668.62	514.361	5043.76	6813.1	7904.87	6634.76	91.8173	5155.69	2625.98	928.721	8631.37	92.713	281.257	92.740	256.730	268.185	271.857	275.244	268.655	8192	-8191	8192	8192	254	
77000.836	1	1	0	0	4603.42	4932.32	4297.38	4.80312	3526.47	1634.53	513.542	4894.97	6787.67	7913.48	6587.79	88.2019	5119.32	2623.45	937.356	8562.87	92.905	281.743	91.627	341.732	268.238	271.933	274.275	268.505	8192	-8191	8192	8192	254	
77000.883	1	1	0	0	4667.03	4857.97	4397.64	12.1658	3509.55	1590.36	514.657	4915.64	6855.39	7859.66	6662.12	88.0288	5100.61	2600.95	940.606	8580.69	93.285	281.641	91.638	297.239	267.818	272.316	277.487	268.470	8192	-8191	8192	8192	254	
77000.930	1	1	0	0	4576.3	4818.68	4331.33	7.87558	3459.39	1629.46	488.016	4917.38	6779.78	7881.95	6621.82	91.1442	5083.32	2645.57	927.514	8561.27	93.271	281.814	92.087	307.811	268.322	271.726	273.922	269.001	8192	-8191	8192	8192	254	
77000.984	1	1	0	0	4555.63	4892.17	4389.44	12.3091	3437.06	1624.43	504.544	4912.59	6777.79	7870.71	6657.79	87.5577	5087.13	2619.61	919.933	8577.88	93.848	281.218	91.484	233.396	269.048	271.149	277.432	268.691	8192	-8191	8192	8192	254	
77000.984	1	1	0	0	4620.79	4818.79	4334.41	15.7541	3518.38	1693.26	476.767	4981.13	6813.62	7823.2	6607.38	85.3413	5087.92	2652.12	918.51	8595.56	92.607	281.831	91.253	265.279	268.756	271.407	276.963	268.910	8192	-8191	8192	8192	254	
77001.031	1	1	0	0	4584.35	4897.31	4319.92	5.29394	3459.28	1634.82	520.896	4971.89	6816.48	7867.65	6670.09	84.0192	5054.03	2642.18	937.442	8596.88	93.561	281.781	92.200	305.868	268.357	273.151	273.539	268.701	8192	-8191	8192	8192	254	
77001.102	1	1	0	0	4561.5	4951.84	4324.96	9.13467	3470.94	1650.12	499.349	4902.66	6765.12	7964.01	6664.17	85.7019	5081.35	2617.01	918.111	8562.55	93.935	281.766	91.890	278.635	268.474	273.269	273.289	269.056	8192	-8191	8192	8192	254	
77001.148	1	1	0	0	4630.68	4805.8	4252.56	5.32169	3516.04	1597.12	526.754	4931.15	6830.78	7860.71	6574.91	89.101	5087.68	2582.62	951.567	8628.15	93.202	281.455	91.716	215.876	268.194	271.300	275.981	269.603	8192	-8191	8192	8192	254	
