BOXY.EXE: ISS Imagent Data Acquisition Program Version 0.82
Ascii Record File

#ACQ INFORMATION
1  Detector Channels 
8  External MUX Channels 
4  Auxiliary Analog Channels 
5000  Waveform (CCF) Frequency (Hz)
4  Waveforms Skipped 
26  Waveforms Averaged 
1  Cycles Averaged 
8  Acquisitions per Waveform 
1  Auxiliary Digital Channels 

#Data Update Rate
20.8333  Update Rate (Hz) 
FALSE -- Use Phase Reference
FALSE -- Use Continuous Phase Reference
FALSE -- Use Intensity Reference
FALSE -- Use Continuous Intensity Reference

#FILE INFORMATION
TRUE -- External MUX Channel results are PARSED.
FALSE -- AC DC and Phase are NOT grouped.
TRUE -- Companion Program Settings File CREATED.
FALSE -- AC data not excluded
FALSE -- DC data not excluded
FALSE -- Phase data not excluded
FALSE -- Auxillary Chn. data not excluded
Tab delimiters

#CALIBRATION STATE
FALSE -- Waveform Calibration Values NOT applied.

#WAVELENGTH DATA
Wavelength Index	Wavelength	Comp1 ExtCoef	Comp2 ExtCoef	Comp3 ExtCoef	Comp4 ExtCoef	BackGround	Weight	

1	6.600e+02	1.486e+00	3.844e+00	1.000e+00	1.000e+00	1.890e-02	1.000e+00	
2	6.900e+02	2.315e+00	1.792e+00	1.000e+00	1.000e+00	2.180e-02	1.000e+00	
3	7.500e+02	1.000e+00	1.000e+00	1.000e+00	1.000e+00	3.010e-03	1.000e+00	
4	7.750e+02	1.000e+00	1.000e+00	1.000e+00	1.000e+00	3.240e-03	1.000e+00	
5	7.850e+02	1.000e+00	1.000e+00	1.000e+00	1.000e+00	1.660e-02	1.000e+00	
6	8.000e+02	1.000e+00	1.000e+00	1.000e+00	1.000e+00	1.480e-02	1.000e+00	
7	8.250e+02	1.000e+00	1.000e+00	1.000e+00	1.000e+00	1.620e-02	1.000e+00	
8	8.300e+02	1.000e+00	1.000e+00	1.000e+00	1.000e+00	2.620e-02	1.000e+00	


#AUX CALIBRATION VALUES
Val Type	aux-1	aux-2	aux-3	aux-4	

Term	0.0000e+00	0.0000e+00	0.0000e+00	0.0000e+00	
Factor	1.0000e+00	1.0000e+00	1.0000e+00	1.0000e+00	


#WF CALIBRATION VALUES
A = Detector Channel
Val Type	A-AC1	A-AC2	A-AC3	A-AC4	A-AC5	A-AC6	A-AC7	A-AC8	A-DC1	A-DC2	A-DC3	A-DC4	A-DC5	A-DC6	A-DC7	A-DC8	A-Ph1	A-Ph2	A-Ph3	A-Ph4	A-Ph5	A-Ph6	A-Ph7	A-Ph8	

Term	0.00000e+00	0.00000e+00	0.00000e+00	0.00000e+00	0.00000e+00	0.00000e+00	0.00000e+00	0.00000e+00	0.00000e+00	0.00000e+00	0.00000e+00	0.00000e+00	0.00000e+00	0.00000e+00	0.00000e+00	0.00000e+00	-1.05892e+02	-9.99249e+01	-2.86485e+02	-2.62799e+02	-2.45797e+02	-2.48632e+02	-7.72400e+01	-7.86612e+01	
Factor	3.48934e-02	2.88771e-02	2.23541e-02	4.58344e-02	3.11822e-02	3.92311e-02	3.80806e-02	2.80088e-02	4.70955e+01	8.07534e+01	3.66973e+01	1.04434e+02	6.45565e+01	3.94082e+01	9.13796e+01	5.49806e+01	X	X	X	X	X	X	X	X	



#DISTANCE SETTINGS
A = Detector Channel
A-1	A-2	A-3	A-4	A-5	A-6	A-7	A-8	

1.5000e+00	1.5000e+00	1.5000e+00	1.5000e+00	1.5000e+00	1.5000e+00	1.5000e+00	1.5000e+00	



#ADDITIONAL SIGNAL INFORMATION
A = Detector Channel
Info. Type	A-1	A-2	A-3	A-4	A-5	A-6	A-7	A-8	

cal. block. ind.	1	1	1	1	1	1	1	1	
wavelength ind.	0	1	2	3	4	5	6	7	
weight	1.0000e+00	1.0000e+00	1.0000e+00	1.0000e+00	1.0000e+00	1.0000e+00	1.0000e+00	1.0000e+00	


#CALIBRATION BLOCK OPTICAL PROPS
Calib. Block Num.	WaveLen Index	Absorption	Scattering	

1	1	1.080e-01	9.000e+00	
1	2	1.300e-01	1.070e+01	
1	3	1.130e-01	9.400e+00	
1	4	1.210e-01	1.000e+01	
1	5	1.080e-01	9.000e+00	
1	6	1.300e-01	1.070e+01	
1	7	1.150e-01	9.600e+00	
1	8	1.330e-01	1.090e+01	

Calib. Block Num.	WaveLen Index	Absorption	Scattering	

2	1	1.120e-01	4.400e+00	
2	2	1.200e-01	5.700e+00	
2	3	1.140e-01	4.600e+00	
2	4	1.160e-01	5.100e+00	
2	5	1.120e-01	4.400e+00	
2	6	1.200e-01	5.700e+00	
2	7	1.150e-01	4.800e+00	
2	8	1.210e-01	6.000e+00	

Calib. Block Num.	WaveLen Index	Absorption	Scattering	

3	1	9.300e-02	8.700e+00	
3	2	1.010e-01	1.040e+01	
3	3	9.500e-02	9.000e+00	
3	4	9.700e-02	9.600e+00	
3	5	9.300e-02	8.700e+00	
3	6	1.010e-01	1.040e+01	
3	7	9.600e-02	9.300e+00	
3	8	1.030e-01	1.080e+01	

Calib. Block Num.	WaveLen Index	Absorption	Scattering	

4	1	1.000e-01	1.000e+01	
4	2	1.000e-01	1.000e+01	
4	3	1.000e-01	1.000e+01	
4	4	1.000e-01	1.000e+01	
4	5	1.000e-01	1.000e+01	
4	6	1.000e-01	1.000e+01	
4	7	1.000e-01	1.000e+01	
4	8	1.000e-01	1.000e+01	



#DATA BEGINS
time	group	step	mark	flag	A-AC1	A-AC2	A-AC3	A-AC4	A-AC5	A-AC6	A-AC7	A-AC8	A-DC1	A-DC2	A-DC3	A-DC4	A-DC5	A-DC6	A-DC7	A-DC8	A-Ph1	A-Ph2	A-Ph3	A-Ph4	A-Ph5	A-Ph6	A-Ph7	A-Ph8	aux-1	aux-2	aux-3	aux-4	digaux	

77082.633	1	1	0	768	3674.22	5.16008	3498.37	1648.35	487.761	4933.9	4.58475	5.47893	5529.51	62.6923	5086.55	2600.63	884.135	8597.05	55.0625	56.0769	10.326	240.317	186.410	189.177	194.882	185.177	79.817	315.556	8192	-8191	8192	8192	254	
77082.688	1	1	0	0	4658.6	4800.15	4136.94	3.42623	3519.01	1680.08	500.072	4989.95	6844.1	7841.33	6347.19	57.9231	5067.11	2615.97	894.788	8650.04	10.843	198.767	9.613	125.775	186.154	189.259	191.473	185.527	8192	-8191	8192	8192	254	
77082.734	1	1	0	0	4640.36	4826.84	4203.08	8.25781	3489.74	1635.8	500.609	4988.01	6802.83	7845.5	6445.77	58.6106	5080.7	2616.9	904.947	8559.33	9.987	198.291	8.995	187.564	185.424	189.604	190.733	185.893	8192	-8191	8192	8192	254	
77082.781	1	1	0	0	4566.45	4868.74	4376.97	8.03971	3498.15	1644.64	487.051	4995.11	6776.03	7879.42	6554.12	64.8654	5038.94	2601	873.553	8618.7	10.617	198.485	9.317	203.819	185.922	188.075	194.805	185.778	8192	-8191	8192	8192	254	
77082.852	1	1	0	0	4550.21	4853.32	4300.16	5.71618	3478.35	1642.3	511.725	4943.07	6781.23	7826.63	6550.25	59.8942	5056.1	2608.5	896.644	8594.01	10.627	198.375	10.013	274.248	186.006	189.758	192.737	186.231	8192	-8191	8192	8192	254	
77082.898	1	1	0	0	4625.59	4854.56	4312.91	6.30467	3499.33	1674.51	524.361	4901.47	6767.32	7821.71	6554.52	58.8365	5077.85	2608.77	910.312	8547.31	10.450	198.806	9.937	181.181	186.118	190.117	193.917	185.833	8192	-8191	8192	8192	254	
77082.945	1	1	0	0	4700.84	4802.72	4348.83	9.71707	3510.85	1613.32	498.194	4920.78	6834.59	7786.51	6599.32	57.4279	5074.96	2572.62	911.365	8572.04	9.744	198.775	9.240	188.253	185.374	189.498	191.308	185.784	8192	-8191	8192	8192	254	
77082.992	1	1	0	0	4578.51	4864.23	4241.14	10.7491	3478.32	1630.71	504.211	4977.96	6738.21	7831.85	6507.08	55.4856	5051.67	2603.56	905.625	8579.55	10.696	198.688	9.723	193.012	185.644	190.606	192.174	185.905	8192	-8191	8192	8192	254	
77083.047	1	1	0	0	4659.46	4879.27	4301.13	9.16012	3405.11	1641.07	497.114	4904.24	6836.62	7874.69	6548.75	55.7067	5021.99	2585.76	892.87	8563.3	10.087	198.572	9.050	171.006	185.872	189.143	192.388	185.344	8192	-8191	8192	8192	254	
77083.094	1	1	0	0	4606.79	4868.87	4365.09	2.95108	3515.68	1630.17	494.625	5030.91	6791.46	7844.13	6575.89	56.6779	5047.28	2615.88	880.909	8609.92	10.905	198.270	8.872	35.563	185.364	190.669	192.923	185.818	8192	-8191	8192	8192	254	
77083.141	1	1	0	0	4599.41	4835.69	4344.38	12.751	3534.28	1684.68	500.246	4986.02	6771.82	7766.58	6604.78	61.976	5098.01	2639.94	898.649	8606.72	11.154	199.031	9.246	210.275	185.529	188.607	193.250	185.912	8192	-8191	8192	8192	254	
77083.188	1	1	0	0	4591.31	4906.75	4344.83	8.83834	3491.82	1663.01	532.17	4915.15	6776.27	7810.61	6584.62	59.9038	5064.81	2598.12	910.505	8567.86	10.053	198.439	8.380	214.889	186.066	189.682	192.723	186.107	8192	-8191	8192	8192	254	
77083.258	1	1	0	0	4579.31	4865.66	4336.55	7.606	3445.35	1650.99	496.434	5033.15	6788.14	7797.49	6607.61	61.375	5025.26	2616	896.442	8661.16	10.436	197.986	9.083	224.894	186.221	188.854	189.305	186.196	8192	-8191	8192	8192	254	
77083.305	1	1	0	0	4581.12	4840.88	4351.53	2.20015	3508.01	1634.3	532.368	4918.03	6745.67	7791.22	6589.12	59.6106	5060.75	2572.38	903.471	8568.63	10.391	199.126	8.694	226.121	186.777	188.547	192.383	185.876	8192	-8191	8192	8192	254	
77083.359	1	1	0	0	4643.79	4861.49	4288.45	11.6248	3499.39	1661.23	520.134	4958.33	6821.39	7815.08	6553.62	60.4183	5041.78	2616.49	902.173	8565.32	10.961	198.432	8.677	215.807	185.213	188.533	193.954	186.484	8192	-8191	8192	8192	254	
77083.406	1	1	0	0	4573.29	4793.59	4300.98	5.9868	3486.79	1624.95	501.545	4950	6758.46	7776.48	6585.87	58.2019	5064.33	2584.34	883.899	8609.07	9.887	198.737	9.087	190.408	184.820	189.716	192.680	185.571	8192	-8191	8192	8192	254	
77083.406	1	1	0	0	4664.99	4872.41	4324.1	7.11576	3462.83	1639.24	485.156	4959.43	6847.67	7819.19	6605.34	58.6635	5043.26	2587.38	886.062	8583.78	11.083	198.737	8.879	182.296	185.366	188.222	195.463	184.761	8192	-8191	8192	8192	254	
77083.453	1	1	0	0	4637.47	4835.66	4395.27	8.66773	3483.7	1646.45	534.921	4978.42	6800.73	7809.57	6610.07	58.524	5063.72	2611.88	930.135	8611.89	10.180	199.095	8.907	273.668	185.643	188.174	193.396	185.562	8192	-8191	8192	8192	254	
77083.500	1	1	0	0	4605.65	4829.38	4393.39	11.8472	3480.84	1626.02	537.977	4956.68	6786.18	7797.35	6632.96	65.1635	5073.78	2584.74	906.245	8605.47	10.744	198.423	9.034	204.037	186.300	189.667	191.508	185.879	8192	-8191	8192	8192	254	
77083.547	1	1	0	0	4636.62	4860.32	4343.73	8.63623	3474.03	1680.73	507.065	4989.95	6810.89	7862.56	6578.29	63.9952	5057.62	2639.98	904.101	8616.57	10.323	198.159	8.911	199.131	185.217	188.874	193.138	185.606	8192	-8191	8192	8192	254	
77083.617	1	1	1	0	4646.55	4881.88	4354.88	7.39912	3546.58	1659.82	516.96	4900.84	6833.08	7844.2	6605.87	61.6731	5104.61	2598.21	895.49	8573.65	9.881	198.229	9.256	237.547	186.525	190.134	193.836	186.198	8192	-8191	8192	8192	254	
77083.672	1	1	0	0	4601.62	4790.02	4364.38	3.40672	3555.5	1629.7	499.914	4946.14	6783.91	7754.44	6615.72	59.8269	5069.46	2590.03	909.216	8584.66	10.182	198.768	9.542	196.660	186.388	188.835	191.081	185.236	8192	-8191	8192	8192	254	
77083.719	1	1	0	0	4558.14	4786.1	4407.95	4.0045	3445.91	1676.85	506.155	4939.03	6746.33	7797.61	6617.07	57.8413	5035.42	2620.11	899.562	8580.92	9.745	198.834	9.550	251.326	186.464	189.209	192.873	185.874	8192	-8191	8192	8192	254	
77083.766	1	1	0	0	4628.89	4749.88	4287.24	8.80381	3491.89	1619.07	476.817	4982.33	6782.25	7752.67	6570	62.899	5062.22	2560.12	878.712	8554.11	10.285	198.708	9.318	232.035	186.473	189.432	192.335	185.594	8192	-8191	8192	8192	254	
77083.812	1	1	0	0	4595.36	4768.52	4343.74	5.04916	3525.67	1628.36	488.938	4944	6775.71	7762.21	6610.42	62.0625	5085.38	2586.57	881.981	8607.32	10.124	199.158	9.365	245.774	185.594	187.953	194.094	186.263	8192	-8191	8192	8192	254	
77083.859	1	1	0	0	4604.23	4835.12	4407.94	3.499	3549.57	1631.99	492.822	5029.6	6785.63	7804.42	6606.68	58.3702	5119.23	2580.62	894.644	8590.74	10.259	198.270	8.094	250.011	185.417	188.077	194.942	185.979	8192	-8191	8192	8192	254	
77083.906	1	1	0	0	4595.03	4885.56	4374	9.21448	3517.96	1613.71	501.075	4888.4	6781.07	7823.96	6630.2	57.5192	5097.62	2581.01	895.538	8556.16	10.085	198.770	8.225	201.833	185.530	189.780	192.477	185.429	8192	-8191	8192	8192	254	
77083.953	1	1	0	0	4551.91	4844.84	4403.7	6.52561	3487.11	1669.78	528.279	4918.38	6762.17	7786.1	6646.87	58.9327	5028.88	2623.3	902.712	8583.28	9.797	198.790	8.810	191.525	185.291	189.221	190.233	186.764	8192	-8191	8192	8192	254	
77084.023	1	1	0	0	4640.88	4814.38	4340.84	9.44745	3446.91	1626.54	503.278	4937.05	6794.5	7785.99	6625.37	63.1394	5056.65	2588.13	901.913	8604.66	10.619	198.278	7.659	150.342	185.886	190.092	188.727	185.917	8192	-8191	8192	8192	254	
77084.078	1	1	0	0	4686.84	4841.42	4347.52	8.35349	3513.17	1609.34	482.877	4914.15	6813.85	7819.17	6608.49	67.9038	5111.6	2602.57	884.236	8499.55	10.332	199.452	9.165	186.667	185.739	189.361	190.508	186.607	8192	-8191	8192	8192	254	
77084.125	1	1	0	0	4593.93	4803.41	4354.39	3.70539	3524.5	1633.74	503.43	4954.06	6771.92	7803.85	6602.52	57.8365	5046.84	2600.88	900.019	8556.14	10.073	198.698	8.988	271.019	185.964	189.206	193.798	185.006	8192	-8191	8192	8192	254	
77084.172	1	1	0	0	4604.58	4807.09	4364.31	1.64152	3509.15	1671.33	490.905	4871.55	6776.13	7809.5	6618.32	60.0096	5075.14	2599.4	885.654	8533.71	10.473	198.349	7.990	298.152	185.653	190.113	193.600	185.812	8192	-8191	8192	8192	254	
77084.172	1	1	0	0	4592.8	4756.18	4313.85	4.47475	3527.36	1623.9	520.812	4975.76	6796.07	7778.47	6584.67	69.0962	5078.72	2593.59	895.846	8592.11	10.349	198.360	9.338	213.614	186.953	188.511	192.165	185.452	8192	-8191	8192	8192	254	
77084.219	1	1	0	0	4667.4	4882.22	4403.45	7.46441	3497.9	1649.26	503.009	4923.89	6842.23	7818.1	6662.89	56.8077	5075.83	2614.87	908.346	8566.34	9.807	198.279	9.052	160.983	186.100	190.535	190.703	185.912	8192	-8191	8192	8192	254	
77084.266	1	1	0	0	4644.25	4845.21	4345.45	5.87978	3450.19	1653.94	516.151	4925.31	6811.41	7838.27	6615.89	63.3462	5032.04	2599.41	919.111	8591.38	10.563	198.932	9.262	179.851	185.696	189.746	193.734	185.976	8192	-8191	8192	8192	254	
77084.312	1	1	0	0	4585.8	4853.71	4332.7	10.7929	3484.15	1602.58	503.294	4858.02	6775.3	7787.58	6589.29	55.375	5086.2	2586.57	888.25	8509.74	10.094	198.602	9.226	220.241	185.673	188.866	190.715	186.399	8192	-8191	8192	8192	254	
77084.391	1	1	0	0	4605.79	4731.12	4353.86	10.7507	3547.96	1595.45	496.123	4997.01	6777.01	7760.98	6632.22	63.2644	5074.61	2569.68	903.327	8613.64	10.138	198.347	9.176	180.927	185.170	188.160	192.124	186.085	8192	-8191	8192	8192	254	
77084.438	1	1	0	0	4642	4931.57	4263.12	2.3941	3458.39	1668.19	480.955	4986.85	6796.65	7844.1	6545.96	60.9183	5050.12	2605.13	882.808	8588.79	10.936	199.247	8.899	212.343	185.562	189.144	191.785	185.693	8192	-8191	8192	8192	254	
77084.484	1	1	0	0	4637.27	4907.9	4291.91	15.0263	3510.1	1647.96	481.429	4907.5	6812.46	7837.18	6584.47	62.1971	5078.52	2616.11	904.981	8585.53	10.584	198.861	9.239	183.110	184.972	189.424	192.257	185.816	8192	-8191	8192	8192	254	
77084.531	1	1	0	0	4609.78	4815.64	4323.46	5.58145	3416.26	1641.87	505.36	4974.84	6804.05	7825.59	6554.68	59.1971	4993	2577.79	896.317	8577.57	10.932	198.604	8.912	216.321	186.434	188.047	194.564	185.585	8192	-8191	8192	8192	254	
77084.578	1	1	0	0	4619.46	4859.75	4358.39	8.89918	3456.36	1662.32	526.305	5018.5	6781.77	7811.69	6625.49	62.3077	5046.65	2608.27	914.798	8631.48	9.839	197.854	8.840	242.455	186.259	189.095	191.256	185.967	8192	-8191	8192	8192	254	
77084.625	1	1	0	0	4603.48	4749.72	4369.25	7.42693	3438.45	1597.71	521.611	4961.87	6802.83	7772.99	6603.37	64.1635	5054.04	2572.3	898.447	8602.07	10.422	197.811	8.784	179.193	186.047	189.464	193.680	186.603	8192	-8191	8192	8192	254	
77084.703	1	1	0	0	4621.28	4831.17	4345.64	7.5315	3468.91	1594.18	516.638	4989.24	6809.87	7802.7	6606.33	55.0433	5023	2572	920.101	8579.25	9.815	198.103	9.099	171.020	185.357	189.905	190.789	185.406	8192	-8191	8192	8192	254	
77084.750	1	1	0	0	4594.56	4851.38	4411.93	1.31706	3453.45	1654.08	520.34	4933.45	6771.46	7779.65	6634.06	57.0385	5055.08	2616.26	894.755	8550.78	10.591	198.702	8.958	88.578	185.232	188.988	190.769	186.275	8192	-8191	8192	8192	254	
77084.797	1	1	0	0	4594.33	4771.45	4308.01	6.02189	3431.12	1598.22	493.085	5046.52	6754.49	7762.59	6566.34	61.1587	5027.52	2576.69	896.279	8617.12	10.179	198.591	8.818	209.459	185.799	189.257	193.186	185.261	8192	-8191	8192	8192	254	
77084.844	1	1	0	0	4560.96	4852.74	4276.9	11.6391	3535.59	1657.08	505.357	4982.81	6775.44	7843.55	6572.71	57.9087	5082.69	2608.84	900.986	8617.42	10.693	200.040	9.726	178.322	185.304	187.877	193.117	186.236	8192	-8191	8192	8192	254	
77084.891	1	1	0	0	4670.44	4806.42	4368.42	9.1149	3491.7	1677.25	516.978	4944.01	6815.96	7790.56	6609.69	60.4327	5066.76	2610.89	910.976	8559.58	10.009	198.669	8.621	217.772	185.880	189.507	193.808	186.747	8192	-8191	8192	8192	254	
77084.938	1	1	0	0	4587.79	4759.87	4344.92	11.027	3536.02	1624.43	506.918	4903.82	6767.23	7763.13	6584.27	60.4567	5071.8	2591.1	898.591	8551.7	10.722	197.928	8.588	230.170	186.258	188.935	192.370	185.783	8192	-8191	8192	8192	254	
77084.938	1	1	0	0	4613.65	4774.14	4291.94	10.2337	3450.36	1633.58	495.9	4905.84	6816.42	7784.93	6565.66	61.4712	5049.99	2611.97	891.514	8557.6	10.364	198.435	9.158	198.064	185.275	188.913	193.059	185.655	8192	-8191	8192	8192	254	
77084.984	1	1	0	0	4573.42	4814.81	4373	4.44006	3461.08	1629.2	486.933	4963.03	6777.15	7813.03	6629.33	63.7596	5035.76	2574.37	864.928	8609.13	11.122	199.493	8.748	258.695	185.103	189.651	191.991	186.128	8192	-8191	8192	8192	254	
77085.031	1	1	0	0	4638.07	4831.12	4341.82	8.03517	3450.69	1607.78	515.704	4892.16	6806.2	7802.38	6566.5	61.2788	5043.64	2570.72	895.043	8550.91	10.248	198.650	8.469	166.186	186.209	189.700	189.429	186.592	8192	-8191	8192	8192	254	
77085.086	1	1	0	0	4609.6	4891.55	4373.41	5.71233	3467.3	1652.09	515.406	4900.61	6826.23	7860.27	6635.32	54.3846	5064.87	2587.36	899.529	8542.3	10.267	199.233	9.074	197.007	185.930	188.663	195.284	186.355	8192	-8191	8192	8192	254	
77085.133	1	1	0	0	4624.98	4807.83	4319.54	14.1172	3487.32	1630.26	493.186	4899.43	6793.42	7796.83	6607.29	58.7163	5059.53	2580.51	897.452	8549.53	10.087	199.039	8.852	182.858	185.058	189.884	194.141	185.164	8192	-8191	8192	8192	254	
77085.180	1	1	0	0	4624.59	4909.33	4311.61	11.1846	3492.71	1624.22	489.734	4879.41	6771.39	7819.1	6600.44	61.8029	5080.9	2581.92	872.889	8548.1	9.903	198.101	8.917	158.993	185.456	188.938	193.962	186.249	8192	-8191	8192	8192	254	
77085.250	1	1	0	0	4623.01	4929.97	4381.14	2.98404	3492.14	1638.93	519.613	4946.64	6797.3	7866.88	6654.25	61.4423	5064.57	2601.16	898.312	8563.8	10.224	198.696	9.086	194.632	185.527	189.074	191.452	185.581	8192	-8191	8192	8192	254	
77085.297	1	1	0	0	4608.94	4916.68	4383.69	6.24368	3483.54	1605.85	490.074	4869.36	6786	7859.78	6642.82	58.1058	5039.96	2599.38	881.639	8503.54	10.508	199.038	8.739	221.783	185.593	190.129	195.559	185.942	8192	-8191	8192	8192	254	
77085.352	1	1	0	0	4566.53	4805.26	4313.11	2.87579	3508.01	1630.06	505.73	4948.38	6757.58	7820.12	6593.25	60.1779	5056	2598.12	888.933	8578.3	10.231	198.458	9.137	125.200	186.708	188.519	191.378	186.425	8192	-8191	8192	8192	254	
77085.398	1	1	0	0	4576.68	4838.96	4288.74	4.70209	3534.91	1649.21	483.06	4984.98	6737.69	7806.78	6571.17	61.1058	5053.78	2596.39	888.125	8634.66	9.993	198.345	9.171	178.364	185.482	188.553	192.801	186.080	8192	-8191	8192	8192	254	
77085.445	1	1	0	0	4581.82	4911.7	4333.25	5.91169	3488.36	1621.07	522.613	4935.74	6739.48	7823.19	6589.39	59.4904	5067.52	2591.46	910.63	8571.52	10.674	198.117	8.786	164.353	185.855	189.411	191.278	186.232	8192	-8191	8192	8192	254	
77085.492	1	1	0	0	4652.86	4870.55	4290.44	6.52647	3460.18	1644.79	521.269	4963.55	6796.58	7827.69	6545.42	62.2067	5040.47	2597.38	893.798	8599.74	10.214	198.551	8.847	212.070	185.853	188.947	192.761	185.820	8192	-8191	8192	8192	254	
77085.562	1	1	0	0	4599.79	4812.69	4335.65	2.55489	3534.96	1603.03	495.038	4966.88	6764.66	7747.35	6609.06	60.0385	5065.86	2560.36	889.635	8566.84	11.061	198.990	9.681	237.137	186.004	189.723	192.352	186.123	8192	-8191	8192	8192	254	
77085.609	1	1	0	0	4604.24	4861.52	4341.73	18.6107	3499.04	1650.15	513.646	4928.02	6776.17	7873.76	6565.98	59.226	5064.09	2584.94	913.337	8624.76	10.629	197.854	8.916	227.032	185.614	189.600	191.866	185.324	8192	-8191	8192	8192	254	
77085.656	1	1	0	0	4596.09	4756.37	4357.79	7.68737	3528.55	1637.73	505.41	4938.65	6767.25	7784.38	6585.67	60.8029	5077.62	2603.46	902.486	8547.36	10.473	198.652	8.652	168.892	185.479	187.319	192.602	186.397	8192	-8191	8192	8192	254	
77085.711	1	1	0	0	4569.3	4796.46	4352.55	6.62696	3551.51	1628.38	491.238	5001.99	6778.61	7740.24	6578.96	62.4279	5125.28	2583.29	885.048	8589.73	9.931	198.469	9.722	152.944	185.701	190.419	192.656	185.586	8192	-8191	8192	8192	254	
77085.711	1	1	0	0	4538.74	4860.85	4324.86	5.36985	3532.63	1592.73	535.11	4910.28	6730.39	7856.9	6569.5	62.4712	5082.81	2574.67	913.346	8557.22	10.098	199.493	8.974	221.933	185.567	189.732	192.130	185.751	8192	-8191	8192	8192	254	
77085.758	1	1	0	0	4612.67	4762.82	4374.29	11.6806	3499.91	1599.2	502.658	4951.02	6814.35	7771	6595.8	57.9567	5045.47	2564.12	884.889	8579.04	10.281	198.516	9.384	192.290	185.063	188.857	190.832	185.957	8192	-8191	8192	8192	254	
77085.805	1	1	0	0	4583.96	4812.72	4387.04	7.44189	3529.41	1564.11	496.376	4963.2	6815.32	7777.78	6623.78	62.4183	5093.27	2546.93	900.38	8559.4	10.532	198.607	8.907	248.580	185.585	188.582	191.978	186.039	8192	-8191	8192	8192	254	
77085.852	1	1	0	0	4493.37	4853.11	4285.09	8.05003	3533.05	1623.37	520.994	4959.14	6745.56	7804.53	6602.12	64.5144	5109.84	2588.75	909.577	8595.76	10.185	198.108	8.833	234.996	186.504	188.890	193.314	186.188	8192	-8191	8192	8192	254	
