BOXY.EXE: ISS Imagent Data Acquisition Program Version 0.82
Ascii Record File

#ACQ INFORMATION
1  Detector Channels 
8  External MUX Channels 
4  Auxiliary Analog Channels 
5000  Waveform (CCF) Frequency (Hz)
4  Waveforms Skipped 
26  Waveforms Averaged 
1  Cycles Averaged 
8  Acquisitions per Waveform 
1  Auxiliary Digital Channels 

#Data Update Rate
20.8333  Update Rate (Hz) 
FALSE -- Use Phase Reference
FALSE -- Use Continuous Phase Reference
FALSE -- Use Intensity Reference
FALSE -- Use Continuous Intensity Reference

#FILE INFORMATION
TRUE -- External MUX Channel results are PARSED.
FALSE -- AC DC and Phase are NOT grouped.
TRUE -- Companion Program Settings File CREATED.
FALSE -- AC data not excluded
FALSE -- DC data not excluded
FALSE -- Phase data not excluded
FALSE -- Auxillary Chn. data not excluded
Tab delimiters

#CALIBRATION STATE
FALSE -- Waveform Calibration Values NOT applied.

#WAVELENGTH DATA
Wavelength Index	Wavelength	Comp1 ExtCoef	Comp2 ExtCoef	Comp3 ExtCoef	Comp4 ExtCoef	BackGround	Weight	

1	6.600e+02	1.486e+00	3.844e+00	1.000e+00	1.000e+00	1.890e-02	1.000e+00	
2	6.900e+02	2.315e+00	1.792e+00	1.000e+00	1.000e+00	2.180e-02	1.000e+00	
3	7.500e+02	1.000e+00	1.000e+00	1.000e+00	1.000e+00	3.010e-03	1.000e+00	
4	7.750e+02	1.000e+00	1.000e+00	1.000e+00	1.000e+00	3.240e-03	1.000e+00	
5	7.850e+02	1.000e+00	1.000e+00	1.000e+00	1.000e+00	1.660e-02	1.000e+00	
6	8.000e+02	1.000e+00	1.000e+00	1.000e+00	1.000e+00	1.480e-02	1.000e+00	
7	8.250e+02	1.000e+00	1.000e+00	1.000e+00	1.000e+00	1.620e-02	1.000e+00	
8	8.300e+02	1.000e+00	1.000e+00	1.000e+00	1.000e+00	2.620e-02	1.000e+00	


#AUX CALIBRATION VALUES
Val Type	aux-1	aux-2	aux-3	aux-4	

Term	0.0000e+00	0.0000e+00	0.0000e+00	0.0000e+00	
Factor	1.0000e+00	1.0000e+00	1.0000e+00	1.0000e+00	


#WF CALIBRATION VALUES
A = Detector Channel
Val Type	A-AC1	A-AC2	A-AC3	A-AC4	A-AC5	A-AC6	A-AC7	A-AC8	A-DC1	A-DC2	A-DC3	A-DC4	A-DC5	A-DC6	A-DC7	A-DC8	A-Ph1	A-Ph2	A-Ph3	A-Ph4	A-Ph5	A-Ph6	A-Ph7	A-Ph8	

Term	0.00000e+00	0.00000e+00	0.00000e+00	0.00000e+00	0.00000e+00	0.00000e+00	0.00000e+00	0.00000e+00	0.00000e+00	0.00000e+00	0.00000e+00	0.00000e+00	0.00000e+00	0.00000e+00	0.00000e+00	0.00000e+00	-1.05892e+02	-9.99249e+01	-2.86485e+02	-2.62799e+02	-2.45797e+02	-2.48632e+02	-7.72400e+01	-7.86612e+01	
Factor	3.48934e-02	2.88771e-02	2.23541e-02	4.58344e-02	3.11822e-02	3.92311e-02	3.80806e-02	2.80088e-02	4.70955e+01	8.07534e+01	3.66973e+01	1.04434e+02	6.45565e+01	3.94082e+01	9.13796e+01	5.49806e+01	X	X	X	X	X	X	X	X	



#DISTANCE SETTINGS
A = Detector Channel
A-1	A-2	A-3	A-4	A-5	A-6	A-7	A-8	

1.5000e+00	1.5000e+00	1.5000e+00	1.5000e+00	1.5000e+00	1.5000e+00	1.5000e+00	1.5000e+00	



#ADDITIONAL SIGNAL INFORMATION
A = Detector Channel
Info. Type	A-1	A-2	A-3	A-4	A-5	A-6	A-7	A-8	

cal. block. ind.	1	1	1	1	1	1	1	1	
wavelength ind.	0	1	2	3	4	5	6	7	
weight	1.0000e+00	1.0000e+00	1.0000e+00	1.0000e+00	1.0000e+00	1.0000e+00	1.0000e+00	1.0000e+00	


#CALIBRATION BLOCK OPTICAL PROPS
Calib. Block Num.	WaveLen Index	Absorption	Scattering	

1	1	1.080e-01	9.000e+00	
1	2	1.300e-01	1.070e+01	
1	3	1.130e-01	9.400e+00	
1	4	1.210e-01	1.000e+01	
1	5	1.080e-01	9.000e+00	
1	6	1.300e-01	1.070e+01	
1	7	1.150e-01	9.600e+00	
1	8	1.330e-01	1.090e+01	

Calib. Block Num.	WaveLen Index	Absorption	Scattering	

2	1	1.120e-01	4.400e+00	
2	2	1.200e-01	5.700e+00	
2	3	1.140e-01	4.600e+00	
2	4	1.160e-01	5.100e+00	
2	5	1.120e-01	4.400e+00	
2	6	1.200e-01	5.700e+00	
2	7	1.150e-01	4.800e+00	
2	8	1.210e-01	6.000e+00	

Calib. Block Num.	WaveLen Index	Absorption	Scattering	

3	1	9.300e-02	8.700e+00	
3	2	1.010e-01	1.040e+01	
3	3	9.500e-02	9.000e+00	
3	4	9.700e-02	9.600e+00	
3	5	9.300e-02	8.700e+00	
3	6	1.010e-01	1.040e+01	
3	7	9.600e-02	9.300e+00	
3	8	1.030e-01	1.080e+01	

Calib. Block Num.	WaveLen Index	Absorption	Scattering	

4	1	1.000e-01	1.000e+01	
4	2	1.000e-01	1.000e+01	
4	3	1.000e-01	1.000e+01	
4	4	1.000e-01	1.000e+01	
4	5	1.000e-01	1.000e+01	
4	6	1.000e-01	1.000e+01	
4	7	1.000e-01	1.000e+01	
4	8	1.000e-01	1.000e+01	



#DATA BEGINS
time	group	step	mark	flag	A-AC1	A-AC2	A-AC3	A-AC4	A-AC5	A-AC6	A-AC7	A-AC8	A-DC1	A-DC2	A-DC3	A-DC4	A-DC5	A-DC6	A-DC7	A-DC8	A-Ph1	A-Ph2	A-Ph3	A-Ph4	A-Ph5	A-Ph6	A-Ph7	A-Ph8	aux-1	aux-2	aux-3	aux-4	digaux	

77040.820	1	1	0	768	3693.56	12.0597	3475.04	1637.08	514.947	4968.92	2.33968	5.1092	5565.78	68.1202	5073.67	2612.32	930.207	8711.51	57.1731	60.601	18.458	256.623	192.738	196.364	197.360	193.016	228.275	246.501	8192	-8191	8192	8192	254	
77040.867	1	1	0	0	4630.57	4917.04	4188.19	3.85907	3499.42	1640.55	492.357	5026.05	6804.34	7846.51	6397.04	67.2308	5069	2603.89	914.611	8732.75	18.258	205.692	17.208	200.051	193.191	196.842	199.436	192.779	8192	-8191	8192	8192	254	
77040.938	1	1	0	0	4549.6	4895.75	4287.56	2.59549	3512.81	1646.97	518.354	5002.92	6776.45	7887.85	6497.62	62.3365	5084.58	2629.99	926.106	8619.76	17.507	205.944	16.961	158.810	193.171	196.672	198.479	192.507	8192	-8191	8192	8192	254	
77040.992	1	1	0	0	4641.65	4900.14	4295.09	4.21341	3528.94	1653.54	496.814	5029.24	6799.28	7871.33	6490.5	67.4663	5079.31	2609.32	918.702	8631.78	17.916	206.025	16.711	123.201	192.941	197.048	200.745	193.467	8192	-8191	8192	8192	254	
77041.039	1	1	0	0	4572.6	4867.27	4302.53	6.86362	3480.49	1624.33	495.148	4980.36	6793.97	7834.17	6569.69	65.5913	5058	2598	912.245	8640.86	17.794	205.768	16.012	180.854	192.615	197.873	197.740	193.323	8192	-8191	8192	8192	254	
77041.086	1	1	0	0	4625.4	4896.38	4295.65	5.24527	3491.96	1613.48	528.405	4932.95	6824.69	7877.26	6583.76	66.5048	5036.96	2586.28	921.788	8589.96	17.921	206.037	16.608	221.787	193.428	197.953	198.266	193.042	8192	-8191	8192	8192	254	
77041.133	1	1	0	0	4594.62	4963.26	4309.87	10.8532	3497.41	1637.77	529.347	4977.02	6802.25	7912.9	6593.48	66.5385	5075.05	2612.29	923.058	8596.72	17.866	205.721	16.390	184.527	192.491	195.364	199.101	192.982	8192	-8191	8192	8192	254	
77041.180	1	1	0	0	4589.62	4804.3	4275.81	9.63557	3544.15	1593.25	517.548	4977.28	6785.34	7844.62	6569.29	73.7019	5074.32	2580.96	916.779	8642.28	17.368	205.961	16.085	222.209	193.272	196.285	197.516	193.986	8192	-8191	8192	8192	254	
77041.227	1	1	0	0	4523.65	4791.55	4290.95	10.1366	3513.4	1633.48	544.634	4956.4	6741.39	7833.09	6572.89	71.8846	5068.91	2628.97	915.832	8645.03	17.608	206.294	15.807	189.412	193.390	198.826	200.041	193.163	8192	-8191	8192	8192	254	
77041.273	1	1	0	0	4619.93	4852.94	4331.71	10.1627	3483.64	1647.56	524.159	4932.86	6804.36	7854.12	6605.64	71.0529	5050.2	2616.12	917.577	8624.7	17.962	206.864	16.256	216.603	193.586	197.723	200.083	192.826	8192	-8191	8192	8192	254	
77041.328	1	1	0	0	4601.04	4810.06	4352	1.19623	3469.06	1657.54	535.028	4997.26	6805.8	7809.02	6620.54	70.6587	5079.98	2607.98	922.365	8635.49	17.219	205.239	16.436	201.560	192.280	195.632	195.975	193.418	8192	-8191	8192	8192	254	
77041.375	1	1	0	0	4570.47	4871.14	4348.85	5.08733	3512.76	1671.28	497.884	4997.92	6771.2	7890.68	6617.49	63.7356	5082.01	2644.75	913.048	8629.62	17.318	205.534	16.025	200.623	192.709	196.717	201.014	192.236	8192	-8191	8192	8192	254	
77041.445	1	1	1	0	4526.26	4787.17	4333.83	8.43028	3498.16	1615.48	495.408	4995.14	6724.25	7816.65	6570.79	69.6683	5057.83	2596.16	917.601	8666.19	17.727	206.068	16.812	234.572	192.933	197.506	197.299	192.773	8192	-8191	8192	8192	254	
77041.492	1	1	0	0	4694.83	4952.64	4443.62	5.02035	3514.18	1620.28	514.909	4955.43	6859.89	7886.51	6666.37	70.7596	5110.09	2598.17	914.514	8607.38	17.672	206.040	16.115	58.224	193.081	197.176	198.786	193.033	8192	-8191	8192	8192	254	
77041.539	1	1	0	0	4513.03	4856.03	4342.21	12.4323	3440.3	1660.28	530.81	4983.94	6729.28	7845.27	6640.12	69.4471	5039.29	2617.91	933.712	8670.97	17.842	205.785	15.585	232.057	192.942	197.395	199.129	192.836	8192	-8191	8192	8192	254	
77041.594	1	1	0	0	4568.43	4829.75	4331.03	9.19529	3463.32	1634.99	517.334	4995.56	6799.18	7860.45	6641.11	74.8942	5027.79	2611.18	943.538	8621.08	18.694	205.945	15.989	182.933	192.299	196.515	199.942	192.487	8192	-8191	8192	8192	254	
77041.586	1	1	0	0	4609.42	4883.71	4405.63	1.51394	3453.66	1672.13	506.493	5030.41	6817.7	7895.05	6637.63	78.4904	5044.29	2635.91	903.971	8703.61	17.317	205.788	15.693	299.710	193.188	196.722	200.550	193.462	8192	-8191	8192	8192	254	
77041.641	1	1	0	0	4628.09	4814.23	4363.3	4.24041	3497.48	1603.53	509.583	4979.21	6770.66	7835.39	6636.3	71.1202	5060.56	2589.03	910.755	8648.76	17.445	205.775	16.186	231.770	192.940	196.057	200.283	192.254	8192	-8191	8192	8192	254	
77041.711	1	1	0	0	4606.69	4911.11	4341.43	8.10369	3527.94	1621.72	519.282	4896.52	6809.92	7895.12	6621.54	68.274	5067.11	2594.54	914.577	8603.54	18.329	205.917	15.775	196.930	193.285	195.581	197.755	193.580	8192	-8191	8192	8192	254	
77041.758	1	1	0	0	4584.33	4880.9	4287.48	2.19687	3507.35	1647.7	518.247	4950.12	6782.92	7839.36	6614.58	74.0096	5096.67	2634.92	920.043	8635.31	17.765	205.923	15.832	94.345	193.241	196.554	199.220	193.296	8192	-8191	8192	8192	254	
77041.805	1	1	0	0	4558.72	4917.53	4380.05	8.86539	3520.51	1639.93	515.182	4992.45	6753.82	7868.26	6640.05	72.0913	5090.97	2615.65	914.433	8614.51	17.558	205.662	16.622	143.952	192.489	197.694	198.844	192.834	8192	-8191	8192	8192	254	
77041.852	1	1	0	0	4592.68	4828.31	4338.44	10.2734	3491.92	1647.07	513.916	4932.88	6778.63	7839.85	6617.99	71.2596	5075.43	2599.69	925.548	8642.68	17.388	206.024	16.301	228.104	192.855	196.760	202.198	192.740	8192	-8191	8192	8192	254	
77041.898	1	1	0	0	4607.98	4834.46	4343.3	6.20775	3468.09	1613.27	516.265	4957.28	6820.43	7831.19	6604.34	70.5385	5102.61	2602.72	930.803	8619.73	17.955	205.851	15.900	209.649	192.940	196.692	200.914	193.315	8192	-8191	8192	8192	254	
77041.953	1	1	0	0	4659.82	4796.95	4281.36	3.89626	3508.37	1701.98	496.324	5002.83	6825.65	7790.92	6600.64	80.226	5065.06	2645.46	902.856	8652.34	18.176	206.118	16.575	232.697	192.823	195.474	197.367	192.781	8192	-8191	8192	8192	254	
77042.000	1	1	0	0	4599.05	4888.63	4320.71	10.0766	3532.29	1641.15	493.182	4967.64	6765.45	7869.13	6626.02	75.7356	5116.14	2626.07	913.447	8662.52	17.645	205.716	16.373	210.905	192.752	197.448	202.653	193.061	8192	-8191	8192	8192	254	
77042.047	1	1	0	0	4579.89	4834.82	4433.12	4.60863	3505.7	1681.99	506.729	5024.24	6781.28	7824.08	6677.69	79.75	5086.46	2651.15	924.894	8676.24	17.998	205.864	15.754	235.536	193.270	196.949	199.799	193.126	8192	-8191	8192	8192	254	
77042.117	1	1	0	0	4631.03	4878.93	4404.77	0.522906	3507.46	1657.3	520.801	5017.35	6816.87	7894.77	6625.69	78.625	5119.57	2637.42	920.625	8689.55	17.753	205.719	16.363	7.679	193.396	195.364	201.880	192.992	8192	-8191	8192	8192	254	
77042.164	1	1	0	0	4598.67	4857.2	4347.95	15.8393	3465.24	1619.55	505.609	4951.98	6799	7863.25	6636.58	78.2163	5045.33	2611.78	919.173	8638.64	17.627	206.110	16.484	207.584	193.256	195.723	198.703	192.905	8192	-8191	8192	8192	254	
77042.211	1	1	0	0	4587.74	4834.7	4394.11	11.195	3464.22	1646.56	485.745	4947.87	6789.62	7848.45	6669.25	78.2115	5062.5	2634.25	908.577	8594.87	17.792	205.786	16.788	221.332	192.168	196.859	198.520	192.406	8192	-8191	8192	8192	254	
77042.258	1	1	0	0	4590.98	4918.67	4300.96	1.11668	3484.94	1616.16	531.099	4991.38	6816.59	7900.79	6626.54	83.9952	5086.84	2586.91	939.644	8616.47	17.504	205.987	17.005	63.937	193.080	196.589	200.266	192.203	8192	-8191	8192	8192	254	
77042.312	1	1	0	0	4596.66	4795.87	4414.85	18.6865	3538.79	1701.41	536.623	4928.53	6784.3	7827.75	6641.92	86.3558	5104.72	2660.48	943.293	8621.61	17.487	205.974	16.301	210.338	193.138	194.420	200.108	193.714	8192	-8191	8192	8192	254	
77042.359	1	1	0	0	4594.86	4904.49	4361.29	10.7102	3469.79	1645.24	515.012	4957.99	6786.11	7927.43	6627.26	82.3894	5083.05	2624.35	945.038	8610.28	18.434	204.831	15.171	143.683	192.731	195.858	199.621	193.334	8192	-8191	8192	8192	254	
77042.359	1	1	0	0	4591.1	4915.16	4376.14	20.1628	3491.88	1583.72	538.408	4998.14	6794.1	7937.12	6657.07	91.1346	5097.58	2611.87	939.212	8652.3	17.837	205.286	16.070	217.817	193.229	198.148	199.221	192.520	8192	-8191	8192	8192	254	
77042.406	1	1	0	0	4656.98	4879.81	4348.23	12.1805	3463.56	1669.33	517.9	4952.85	6879.15	7859.35	6646.51	85.0385	5083.38	2618.87	940.154	8645.39	17.852	207.242	16.011	268.582	192.917	197.089	202.316	192.790	8192	-8191	8192	8192	254	
77042.453	1	1	0	0	4607.27	4920.01	4370.82	4.32383	3487.59	1608.83	506.701	4965.38	6812.49	7883.33	6661.76	88.8125	5085.3	2603.63	920.303	8658.46	17.643	205.608	16.202	161.527	193.564	196.711	199.971	193.604	8192	-8191	8192	8192	254	
77042.500	1	1	0	0	4644.15	4771.82	4351.37	11.721	3485.89	1628.71	491.626	4893.23	6845.58	7806.52	6670.84	88.1346	5086.79	2614.92	936.817	8634.72	17.299	205.575	16.647	227.122	192.661	195.614	199.262	192.478	8192	-8191	8192	8192	254	
77042.570	1	1	0	0	4709.01	4906.82	4371.74	6.48003	3491.12	1657.91	506.688	5023.1	6865.76	7919.18	6699.04	88.774	5059.42	2634.25	934.966	8684.04	18.087	205.258	16.269	219.531	193.467	195.827	197.456	193.223	8192	-8191	8192	8192	254	
77042.617	1	1	0	0	4550.55	4850.42	4361.9	11.0699	3501.82	1659.32	506.168	5006.49	6811.25	7897.73	6658.69	86.5962	5082.13	2639.14	927.062	8693.29	17.151	205.845	16.148	135.395	191.554	196.492	197.661	192.347	8192	-8191	8192	8192	254	
77042.672	1	1	0	0	4613.37	4828.35	4410.96	5.62865	3590.65	1647.83	517.688	4988.08	6831.85	7792.47	6636.73	79.0673	5130.38	2620.81	927.471	8626.33	18.001	205.689	16.299	243.000	193.050	197.410	200.273	193.452	8192	-8191	8192	8192	254	
77042.719	1	1	0	0	4624.4	4898.48	4315.88	5.76724	3461.32	1650.62	499.371	5024.95	6790.33	7904.26	6653.7	86.3846	5106.2	2647.36	929.49	8723.1	17.740	205.701	16.276	195.999	193.437	197.263	199.008	192.750	8192	-8191	8192	8192	254	
77042.766	1	1	0	0	4652.35	4813.16	4414.4	14.4045	3525.5	1602.85	528.186	4982.97	6839.8	7867.25	6688.94	86.1635	5092.59	2623.68	940.707	8661.98	17.149	206.369	17.101	178.597	193.525	196.376	199.331	193.625	8192	-8191	8192	8192	254	
77042.812	1	1	0	0	4618.35	4738.31	4376.9	7.82517	3498.49	1637.94	511.088	4963.29	6830.9	7788.01	6668.93	94.1779	5087.34	2643.03	933.356	8667.59	18.007	206.173	16.250	190.768	193.528	196.352	198.653	193.513	8192	-8191	8192	8192	254	
77042.859	1	1	0	0	4634.04	4832.52	4348.81	5.86584	3440.79	1595.98	513.68	4978.96	6815.86	7880.34	6651.88	87.7019	5038.93	2594.41	957.111	8683.05	18.168	205.714	15.830	212.400	192.689	196.965	201.250	193.582	8192	-8191	8192	8192	254	
77042.906	1	1	0	0	4722.46	4855.61	4329.99	4.11938	3511.83	1685.14	525.163	4925.17	6887.4	7897.77	6628.64	89.9087	5106.34	2668.81	938.447	8605.77	17.968	206.370	16.305	203.662	193.753	196.713	198.822	192.807	8192	-8191	8192	8192	254	
77042.984	1	1	0	0	4611.21	4809.41	4374.01	4.07653	3538.42	1666.83	519.387	4962.12	6837.4	7838.23	6660.74	89.5096	5121.23	2668.12	930.236	8640.26	17.136	206.423	16.198	168.959	193.155	197.060	201.070	193.051	8192	-8191	8192	8192	254	
77043.031	1	1	0	0	4636.84	4799.73	4407.03	3.44789	3436.24	1649.78	516.199	5009.42	6835.11	7820.58	6694.27	95.2212	5074.16	2660.78	934.221	8693.25	17.313	205.590	15.926	239.045	193.283	196.254	201.849	192.363	8192	-8191	8192	8192	254	
77043.078	1	1	0	0	4607.32	4929.01	4355.11	3.97229	3462.93	1650.78	525	5040.61	6849.12	7949.7	6659.29	94.2067	5101.81	2638.41	951.077	8663.41	17.246	206.339	17.492	227.685	193.546	197.375	199.628	192.793	8192	-8191	8192	8192	254	
77043.125	1	1	0	0	4591.93	4859.46	4336.57	7.45718	3486.47	1611.13	522.778	5043.15	6859.42	7871.08	6618.94	94.6971	5092.17	2635.19	948.976	8745	17.315	205.400	15.740	209.921	192.637	196.672	199.329	193.496	8192	-8191	8192	8192	254	
77043.125	1	1	0	0	4623.28	4834.54	4354.62	14.0504	3512.05	1656.94	497.787	4994.97	6824.82	7854.03	6633.38	97.5673	5092.63	2661.58	930.721	8660.15	18.272	206.021	15.894	207.567	193.541	197.804	199.042	193.589	8192	-8191	8192	8192	254	
77043.172	1	1	0	0	4559.48	4897.22	4341.92	9.61304	3487.76	1673.48	517.915	5007.88	6803.87	7908.5	6667.94	104.192	5105.15	2643.66	952.188	8700.29	17.638	206.153	16.490	240.998	192.421	198.023	199.394	193.063	8192	-8191	8192	8192	254	
77043.219	1	1	0	0	4574.64	4910.22	4242	2.23851	3464.54	1634.07	511.04	4967.15	6801.91	7920.8	6610.19	104.019	5123.19	2632.33	934.298	8622.41	17.622	206.091	16.583	30.367	192.468	196.902	199.501	193.482	8192	-8191	8192	8192	254	
77043.266	1	1	0	0	4565.74	4838.79	4318.9	9.52904	3527.69	1650.49	526.706	4935.26	6820.6	7875.81	6617.16	98.4856	5108.52	2653.62	948.188	8638.05	18.045	206.396	16.261	181.045	192.718	197.143	197.335	193.881	8192	-8191	8192	8192	254	
77043.344	1	1	0	0	4619.81	4900.83	4355.24	6.96772	3484.9	1613.75	494.817	5033.58	6837.66	7949.7	6650.39	79.4231	5045.2	2603.49	901.264	8658.59	17.359	205.821	16.425	201.342	192.894	196.725	199.565	193.201	8192	-8191	8192	8192	254	
77043.391	1	1	0	0	4587.73	4808.26	4425.38	4.15059	3451.41	1650.48	474.622	4962.74	6770.03	7813.17	6674.36	60.9087	5073.61	2592	886.125	8576.65	17.691	205.737	15.771	336.031	193.153	197.250	200.410	193.661	8192	-8191	8192	8192	254	
77043.438	1	1	0	0	4546.96	4856.27	4328.54	4.33253	3480.88	1660.06	496.282	4962.3	6763.44	7818.7	6575.07	62.2692	5059	2602.62	893.558	8609.36	17.383	206.048	16.480	252.666	193.615	196.093	198.282	192.884	8192	-8191	8192	8192	254	
77043.484	1	1	0	0	4660.85	4803.31	4358.94	6.11778	3581.64	1646.08	509.291	4945.21	6852.89	7764.4	6623.57	61.976	5115.29	2614.65	914.264	8572.29	17.689	206.779	16.288	230.407	193.018	196.004	199.755	193.034	8192	-8191	8192	8192	254	
77043.531	1	1	0	0	4568.42	4752.4	4363.97	2.98188	3439.33	1631.03	514.559	4901.31	6780.7	7775.46	6653.86	57.8846	5039.88	2581.61	891.909	8572.82	17.500	206.315	15.867	155.761	193.074	195.529	200.107	194.094	8192	-8191	8192	8192	254	
77043.578	1	1	0	0	4583.29	4830.66	4373.63	2.63938	3526.82	1623.25	498.117	5050.71	6768.89	7867.36	6624.92	57.726	5107.61	2614.8	881.635	8641.91	17.837	205.151	15.817	227.819	193.421	196.824	203.251	193.208	8192	-8191	8192	8192	254	
77043.656	1	1	0	0	4587.93	4916.59	4405.33	10.0172	3451.88	1592.19	525.761	5023.18	6753.99	7849.45	6633.37	54.2212	5024.59	2572.55	908.841	8644.69	17.149	206.516	16.329	210.324	193.418	197.257	199.840	192.963	8192	-8191	8192	8192	254	
77043.703	1	1	0	0	4614.63	4792.11	4400.26	7.5246	3458.23	1656.92	512.901	4920.2	6815.07	7813.25	6647.65	57.3654	5049.92	2591.56	906.683	8647.56	17.715	206.602	16.107	169.163	192.794	197.310	196.996	192.643	8192	-8191	8192	8192	254	
77043.750	1	1	0	0	4600.01	4893.17	4356.36	9.93962	3537.02	1648.04	496.689	5002.5	6762.61	7847.29	6675.78	55.8029	5103.08	2611.27	895.26	8651.32	16.850	205.552	17.273	200.568	192.801	197.163	200.460	193.228	8192	-8191	8192	8192	254	
77043.797	1	1	0	0	4601.93	4867.72	4413.93	3.59698	3516.58	1675.02	502.738	4916.07	6802.58	7856.27	6679.02	56.9279	5039.96	2621.58	896.75	8598.17	18.334	206.508	16.147	194.119	192.997	196.044	200.593	192.917	8192	-8191	8192	8192	254	
77043.844	1	1	0	0	4604.55	4835.28	4337.88	5.48676	3424.76	1640.2	510.451	4964.91	6761.13	7848.22	6611.51	56.9663	5000.03	2611.6	889.553	8598.46	17.602	206.333	17.028	220.023	192.284	197.241	198.847	193.640	8192	-8191	8192	8192	254	
77043.891	1	1	0	0	4593.67	4838.4	4375.78	5.60102	3490.73	1614.41	517.193	4906.23	6809.89	7820.44	6631.9	55.1538	5041.91	2593.56	911.312	8546.98	18.111	205.829	15.992	218.110	194.098	195.926	198.860	193.715	8192	-8191	8192	8192	254	
77043.891	1	1	0	0	4564.81	4869.04	4397.23	9.7882	3486.55	1668.54	518.291	4935.03	6778.4	7845.8	6645.44	58.0337	5059.13	2616.36	908.245	8600.69	18.367	206.307	15.644	199.722	192.175	196.015	198.483	193.666	8192	-8191	8192	8192	254	
77043.945	1	1	0	0	4591.96	4807.62	4292.68	4.24089	3473.36	1630.17	513.536	4956.42	6762.74	7809.1	6553.94	57.601	5049.83	2577.52	888.611	8594.31	17.773	205.659	16.067	237.795	192.533	196.022	199.950	192.761	8192	-8191	8192	8192	254	
77044.016	1	1	0	0	4637.78	4819.51	4334.29	1.60427	3497.76	1657.53	512.989	4992.99	6784.05	7806.07	6597.15	61.5288	5048.16	2607	905.38	8625.53	17.470	206.111	15.701	203.169	192.668	196.286	201.624	192.875	8192	-8191	8192	8192	254	
77044.062	1	1	0	0	4575.53	4817.32	4399.45	5.10077	3519.49	1603.25	519.159	4943.88	6804.35	7791.65	6643.94	60.8606	5080.98	2572.65	908.793	8581.3	17.835	205.683	16.272	252.440	192.936	195.516	200.789	192.310	8192	-8191	8192	8192	254	
