BOXY.EXE: ISS Imagent Data Acquisition Program Version 0.82
Ascii Record File

#ACQ INFORMATION
1  Detector Channels 
8  External MUX Channels 
4  Auxiliary Analog Channels 
5000  Waveform (CCF) Frequency (Hz)
4  Waveforms Skipped 
26  Waveforms Averaged 
1  Cycles Averaged 
8  Acquisitions per Waveform 
1  Auxiliary Digital Channels 

#Data Update Rate
20.8333  Update Rate (Hz) 
FALSE -- Use Phase Reference
FALSE -- Use Continuous Phase Reference
FALSE -- Use Intensity Reference
FALSE -- Use Continuous Intensity Reference

#FILE INFORMATION
TRUE -- External MUX Channel results are PARSED.
FALSE -- AC DC and Phase are NOT grouped.
TRUE -- Companion Program Settings File CREATED.
FALSE -- AC data not excluded
FALSE -- DC data not excluded
FALSE -- Phase data not excluded
FALSE -- Auxillary Chn. data not excluded
Tab delimiters

#CALIBRATION STATE
FALSE -- Waveform Calibration Values NOT applied.

#WAVELENGTH DATA
Wavelength Index	Wavelength	Comp1 ExtCoef	Comp2 ExtCoef	Comp3 ExtCoef	Comp4 ExtCoef	BackGround	Weight	

1	6.600e+02	1.486e+00	3.844e+00	1.000e+00	1.000e+00	1.890e-02	1.000e+00	
2	6.900e+02	2.315e+00	1.792e+00	1.000e+00	1.000e+00	2.180e-02	1.000e+00	
3	7.500e+02	1.000e+00	1.000e+00	1.000e+00	1.000e+00	3.010e-03	1.000e+00	
4	7.750e+02	1.000e+00	1.000e+00	1.000e+00	1.000e+00	3.240e-03	1.000e+00	
5	7.850e+02	1.000e+00	1.000e+00	1.000e+00	1.000e+00	1.660e-02	1.000e+00	
6	8.000e+02	1.000e+00	1.000e+00	1.000e+00	1.000e+00	1.480e-02	1.000e+00	
7	8.250e+02	1.000e+00	1.000e+00	1.000e+00	1.000e+00	1.620e-02	1.000e+00	
8	8.300e+02	1.000e+00	1.000e+00	1.000e+00	1.000e+00	2.620e-02	1.000e+00	


#AUX CALIBRATION VALUES
Val Type	aux-1	aux-2	aux-3	aux-4	

Term	0.0000e+00	0.0000e+00	0.0000e+00	0.0000e+00	
Factor	1.0000e+00	1.0000e+00	1.0000e+00	1.0000e+00	


#WF CALIBRATION VALUES
A = Detector Channel
Val Type	A-AC1	A-AC2	A-AC3	A-AC4	A-AC5	A-AC6	A-AC7	A-AC8	A-DC1	A-DC2	A-DC3	A-DC4	A-DC5	A-DC6	A-DC7	A-DC8	A-Ph1	A-Ph2	A-Ph3	A-Ph4	A-Ph5	A-Ph6	A-Ph7	A-Ph8	

Term	0.00000e+00	0.00000e+00	0.00000e+00	0.00000e+00	0.00000e+00	0.00000e+00	0.00000e+00	0.00000e+00	0.00000e+00	0.00000e+00	0.00000e+00	0.00000e+00	0.00000e+00	0.00000e+00	0.00000e+00	0.00000e+00	-1.05892e+02	-9.99249e+01	-2.86485e+02	-2.62799e+02	-2.45797e+02	-2.48632e+02	-7.72400e+01	-7.86612e+01	
Factor	3.48934e-02	2.88771e-02	2.23541e-02	4.58344e-02	3.11822e-02	3.92311e-02	3.80806e-02	2.80088e-02	4.70955e+01	8.07534e+01	3.66973e+01	1.04434e+02	6.45565e+01	3.94082e+01	9.13796e+01	5.49806e+01	X	X	X	X	X	X	X	X	



#DISTANCE SETTINGS
A = Detector Channel
A-1	A-2	A-3	A-4	A-5	A-6	A-7	A-8	

1.5000e+00	1.5000e+00	1.5000e+00	1.5000e+00	1.5000e+00	1.5000e+00	1.5000e+00	1.5000e+00	



#ADDITIONAL SIGNAL INFORMATION
A = Detector Channel
Info. Type	A-1	A-2	A-3	A-4	A-5	A-6	A-7	A-8	

cal. block. ind.	1	1	1	1	1	1	1	1	
wavelength ind.	0	1	2	3	4	5	6	7	
weight	1.0000e+00	1.0000e+00	1.0000e+00	1.0000e+00	1.0000e+00	1.0000e+00	1.0000e+00	1.0000e+00	


#CALIBRATION BLOCK OPTICAL PROPS
Calib. Block Num.	WaveLen Index	Absorption	Scattering	

1	1	1.080e-01	9.000e+00	
1	2	1.300e-01	1.070e+01	
1	3	1.130e-01	9.400e+00	
1	4	1.210e-01	1.000e+01	
1	5	1.080e-01	9.000e+00	
1	6	1.300e-01	1.070e+01	
1	7	1.150e-01	9.600e+00	
1	8	1.330e-01	1.090e+01	

Calib. Block Num.	WaveLen Index	Absorption	Scattering	

2	1	1.120e-01	4.400e+00	
2	2	1.200e-01	5.700e+00	
2	3	1.140e-01	4.600e+00	
2	4	1.160e-01	5.100e+00	
2	5	1.120e-01	4.400e+00	
2	6	1.200e-01	5.700e+00	
2	7	1.150e-01	4.800e+00	
2	8	1.210e-01	6.000e+00	

Calib. Block Num.	WaveLen Index	Absorption	Scattering	

3	1	9.300e-02	8.700e+00	
3	2	1.010e-01	1.040e+01	
3	3	9.500e-02	9.000e+00	
3	4	9.700e-02	9.600e+00	
3	5	9.300e-02	8.700e+00	
3	6	1.010e-01	1.040e+01	
3	7	9.600e-02	9.300e+00	
3	8	1.030e-01	1.080e+01	

Calib. Block Num.	WaveLen Index	Absorption	Scattering	

4	1	1.000e-01	1.000e+01	
4	2	1.000e-01	1.000e+01	
4	3	1.000e-01	1.000e+01	
4	4	1.000e-01	1.000e+01	
4	5	1.000e-01	1.000e+01	
4	6	1.000e-01	1.000e+01	
4	7	1.000e-01	1.000e+01	
4	8	1.000e-01	1.000e+01	



#DATA BEGINS
time	group	step	mark	flag	A-AC1	A-AC2	A-AC3	A-AC4	A-AC5	A-AC6	A-AC7	A-AC8	A-DC1	A-DC2	A-DC3	A-DC4	A-DC5	A-DC6	A-DC7	A-DC8	A-Ph1	A-Ph2	A-Ph3	A-Ph4	A-Ph5	A-Ph6	A-Ph7	A-Ph8	aux-1	aux-2	aux-3	aux-4	digaux	

76311.898	1	1	0	768	3767.11	5.86267	3638.85	1645.7	520.369	5028.69	2.93964	5.21508	5657.39	57.5577	5179.62	2612.58	904.635	8695.01	48.0721	44.3317	30.874	209.946	206.433	209.840	212.149	206.620	55.895	198.019	8192	-8191	8192	8192	254	
76311.945	1	1	0	0	4715.59	4931.7	4221.98	5.55943	3555.68	1705.71	517.373	5088.37	6870.5	7992.1	6476.12	53.2115	5160.94	2628.86	925.231	8706.34	31.698	220.040	29.490	183.236	206.933	211.489	211.199	206.858	8192	-8191	8192	8192	254	
76312.016	1	1	0	0	4612.82	5052.52	4261.44	6.14167	3618.09	1702.78	531.019	4983.76	6818	8020.88	6503.82	53.3654	5189.18	2639.64	918.971	8629.31	31.150	219.389	29.762	257.339	206.264	209.637	215.013	207.513	8192	-8191	8192	8192	254	
76312.062	1	1	0	0	4650.05	5006.22	4335.87	5.18327	3598.37	1684.79	513.834	5005.91	6847.38	8023.11	6603.24	54.0096	5167.41	2622.94	915.226	8673.72	31.316	219.503	29.261	233.965	205.722	209.791	211.903	206.498	8192	-8191	8192	8192	254	
76312.109	1	1	0	0	4633.28	4971.64	4378.26	13.8266	3620.88	1634.19	515.115	4989.25	6816.64	7993.59	6612.79	50.9087	5197	2612.4	903.481	8698.42	30.446	218.881	29.647	222.261	206.595	211.991	214.057	206.630	8192	-8191	8192	8192	254	
76312.156	1	1	0	0	4606.85	4983.26	4419.42	2.14224	3579.29	1648.14	510.418	5017.61	6774.27	8033.66	6659.44	52.0096	5159.25	2597.83	911.399	8682.21	30.617	218.594	28.852	295.729	206.176	210.767	212.570	206.400	8192	-8191	8192	8192	254	
76312.211	1	1	0	0	4689.44	4983.03	4311.42	5.37219	3596.96	1602.92	526.242	5010.66	6855.54	8023.55	6599.87	59.7019	5171.11	2562.3	924.481	8667.08	30.333	218.650	29.425	241.183	205.941	209.001	212.905	206.248	8192	-8191	8192	8192	254	
76312.258	1	1	0	0	4596.3	4965.2	4341.86	9.79106	3590.43	1691.64	507.579	5094.16	6784.74	8004.38	6627.1	53.4567	5175.67	2622.69	895.413	8719.25	30.339	218.960	29.611	230.772	206.370	209.524	214.995	206.418	8192	-8191	8192	8192	254	
76312.305	1	1	0	0	4612.91	5003.19	4425.17	10.5327	3567.61	1646.71	530.07	4989.86	6868.07	8022.82	6685.44	55.1106	5158.88	2602.34	910.784	8694.86	31.143	219.333	29.677	243.929	206.740	209.830	214.452	206.230	8192	-8191	8192	8192	254	
76312.352	1	1	0	0	4638.83	5029.27	4384.41	10.5903	3584.86	1704.17	513.127	5041.2	6812.03	8028.12	6643.26	52.774	5170.26	2654	906.904	8704.7	31.170	219.445	29.207	236.133	205.247	209.003	212.138	206.947	8192	-8191	8192	8192	254	
76312.398	1	1	0	0	4647.79	4995.5	4424.59	11.3159	3542.63	1657.06	532.98	5107.42	6832.37	8019.02	6690.14	58.0048	5144.86	2601.5	901.534	8749	31.011	218.833	29.815	188.876	206.743	210.047	213.253	206.402	8192	-8191	8192	8192	254	
76312.445	1	1	0	0	4611.69	5012.97	4434.06	7.90724	3628.3	1646.96	513.513	5061.79	6826.19	8013.97	6707.38	54.9038	5173.21	2611.65	910.361	8720.07	31.895	219.269	29.431	228.172	206.691	210.398	212.485	206.709	8192	-8191	8192	8192	254	
76312.516	1	1	0	0	4644.19	4920.69	4449.15	12.0225	3552.22	1644.97	537.247	4967.83	6802.55	7965.71	6685.35	57.1683	5187.95	2603.31	916.308	8653.09	30.643	218.862	29.667	243.481	206.513	209.925	212.603	206.419	8192	-8191	8192	8192	254	
76312.570	1	1	0	0	4595.1	4934.19	4360.9	8.03332	3559.54	1663.31	524.537	5007.64	6826.16	7939.09	6642.7	56.4423	5160.1	2602.89	932.798	8728.05	30.608	219.190	28.793	233.676	207.046	210.894	213.852	206.375	8192	-8191	8192	8192	254	
76312.617	1	1	0	0	4643.8	4953.56	4400.59	5.17921	3563.51	1693	505.65	5008.73	6849.57	7960.2	6668.82	48.9856	5185.07	2624.21	899.082	8711.84	31.537	219.883	29.335	300.549	206.045	208.908	215.145	206.997	8192	-8191	8192	8192	254	
76312.664	1	1	0	0	4634.46	5018.91	4443.69	6.38469	3571.28	1686.16	513.026	5034.97	6812.02	8010.32	6711.78	51.5433	5162.38	2625.66	915.942	8718.14	31.350	219.425	28.956	198.944	206.271	209.666	213.909	206.161	8192	-8191	8192	8192	254	
76312.664	1	1	0	0	4670.35	4997.28	4469.5	10.3765	3574.48	1694.66	501.576	5022.86	6853.16	7995.68	6735.95	49.0673	5169.36	2646.3	891.486	8712.22	30.694	218.757	30.051	189.491	206.881	208.774	216.190	205.443	8192	-8191	8192	8192	254	
76312.711	1	1	0	0	4623.29	4956.67	4394.42	5.26059	3551.6	1636.96	531.145	5014.99	6814	7989.42	6688.04	46.5337	5141.58	2604.97	902.659	8691.06	31.010	218.975	29.448	199.419	205.950	210.002	213.592	206.464	8192	-8191	8192	8192	254	
76312.758	1	1	0	0	4684.56	4974.5	4374.48	11.2899	3582.78	1642.36	510.182	5059.78	6824.33	8037	6665.87	55.75	5169.47	2604.81	909.803	8709.91	30.989	218.588	29.061	169.206	206.087	210.471	210.847	207.027	8192	-8191	8192	8192	254	
76312.805	1	1	0	0	4685.44	4985.1	4421.88	6.36266	3596.74	1660.11	505.449	5022.27	6864.7	8013.46	6718.02	57.351	5163.66	2626.21	904.668	8626.23	30.927	219.889	29.330	253.530	206.475	210.097	211.032	206.997	8192	-8191	8192	8192	254	
76312.875	1	1	0	0	4619.88	4990.91	4510.88	8.10435	3538.2	1699.29	498.156	5023.95	6783.46	8041.98	6761.19	55.5481	5161.95	2628.05	896.058	8693.08	30.702	219.066	28.815	284.266	206.737	209.755	212.640	205.192	8192	-8191	8192	8192	254	
76312.930	1	1	0	0	4626.51	4971.06	4467.38	8.098	3599.8	1668.42	496.349	5047.08	6839.27	8031.61	6743.45	50.7212	5192.57	2625.77	895.341	8676.15	30.659	218.500	29.905	207.057	207.024	209.475	212.475	206.679	8192	-8191	8192	8192	254	
76312.977	1	1	1	0	4706.56	4984.5	4399.44	13.5114	3645.29	1675.85	514.243	5076.83	6853.93	8005.68	6721.37	53.1875	5193.75	2617.35	911.274	8718.17	31.170	219.449	29.299	206.776	205.974	210.134	208.995	207.077	8192	-8191	8192	8192	254	
76313.023	1	1	0	0	4641.53	5023.76	4393.27	7.59687	3540.16	1687.46	483.116	5008.44	6810.39	8081.05	6678.66	53.4808	5128.95	2654.49	889.221	8692.66	30.793	218.713	29.640	260.407	206.328	210.450	212.042	206.218	8192	-8191	8192	8192	254	
76313.070	1	1	0	0	4679.6	5019.59	4381.29	5.21933	3608.02	1677.83	510.704	5061.22	6821.97	8021.88	6681.48	50.9087	5170.94	2601.71	909.428	8710.74	30.976	219.445	28.314	248.790	206.725	210.389	213.080	206.830	8192	-8191	8192	8192	254	
76313.117	1	1	0	0	4624.28	4973	4509.14	4.99737	3601.86	1641.2	526.6	4956.39	6795.98	8007.44	6741.33	52.6779	5180.08	2600.87	920.587	8655.45	31.023	218.906	29.330	197.129	204.975	209.339	211.835	206.306	8192	-8191	8192	8192	254	
76313.195	1	1	0	0	4577.73	4934.69	4443.46	2.92816	3557.01	1668.32	519.584	5039.27	6792.22	7989.57	6730.65	52.3173	5176.14	2619.06	909.053	8683.77	30.840	219.612	30.590	265.465	206.608	209.299	213.197	205.606	8192	-8191	8192	8192	254	
76313.242	1	1	0	0	4713.78	4879.34	4449	0.50837	3592.77	1655.14	503.147	5112.43	6878.01	7957.89	6715.81	47.1731	5189.05	2611.39	903.418	8735.11	31.141	219.120	29.338	2.828	206.184	210.536	212.348	205.985	8192	-8191	8192	8192	254	
76313.289	1	1	0	0	4636.2	4913.1	4421.12	8.88572	3532.01	1645.84	509.305	4995.24	6821.69	7980.15	6708.77	53.024	5167.81	2596.81	909.24	8659.44	30.829	219.123	28.574	206.290	207.083	208.825	211.416	206.735	8192	-8191	8192	8192	254	
76313.336	1	1	0	0	4764.17	4933.31	4423.69	2.72321	3571.62	1630.32	540.995	5032.42	6880.27	7995.38	6705.46	56.7452	5159.07	2600.95	924.707	8689.95	30.762	219.958	29.269	280.035	207.010	209.282	209.207	206.718	8192	-8191	8192	8192	254	
76313.383	1	1	0	0	4636.55	4926.32	4421.68	3.04223	3484.01	1698.06	532.573	4917.23	6841.54	7962.36	6704.89	53.3221	5121.48	2655.09	913.341	8642.72	30.366	219.339	30.347	240.462	205.919	210.327	214.156	207.292	8192	-8191	8192	8192	254	
76313.430	1	1	0	0	4664.87	5042.4	4405.62	8.54782	3529.93	1675.77	513.872	5053.69	6815.63	8032.59	6708.43	49.3029	5161.06	2628.79	915.216	8707.84	30.978	219.329	29.441	191.213	206.479	210.147	210.730	206.248	8192	-8191	8192	8192	254	
76313.430	1	1	0	0	4691.25	4954.76	4410.56	9.71862	3612.48	1611.7	511.689	5053.76	6869.68	8011.05	6708.83	53	5208.8	2617.96	900.207	8698.07	30.314	219.015	29.072	238.369	206.060	209.328	213.452	206.882	8192	-8191	8192	8192	254	
76313.477	1	1	0	0	4642.83	4933.63	4403.62	6.94421	3537.67	1679.91	515.846	4955.64	6840.72	8014.45	6713.14	51.3173	5137.73	2606.8	906.428	8652	31.000	218.517	28.922	242.815	205.694	209.341	212.886	206.092	8192	-8191	8192	8192	254	
76313.523	1	1	0	0	4617.38	4940.27	4468.7	7.03391	3595.27	1657.85	517.919	5052.06	6822.23	7991.93	6707	52.1827	5162.03	2615.67	903.144	8703.92	31.060	218.664	29.769	224.476	206.051	210.157	213.437	206.192	8192	-8191	8192	8192	254	
76313.578	1	1	0	0	4591.86	4945.12	4402.3	7.67122	3564.34	1677.55	513.858	5013.3	6780.18	8006.3	6717.65	52.2452	5164.54	2609.23	902.279	8691.92	30.733	219.847	29.060	236.564	206.135	210.174	210.890	206.906	8192	-8191	8192	8192	254	
76313.648	1	1	0	0	4646.21	4936.39	4329.82	8.16272	3583.98	1648.03	548.644	4998.75	6832.17	7951.46	6660.24	49.4904	5165.81	2613.41	917.183	8672.88	30.619	218.963	29.660	173.138	205.971	209.694	213.106	206.285	8192	-8191	8192	8192	254	
76313.695	1	1	0	0	4687.68	5010.87	4397.15	5.3525	3622.02	1638.94	517.928	5056.65	6827.97	8027.46	6649.5	50.4183	5191.89	2609.96	901.962	8725.73	31.509	218.749	28.868	209.707	206.293	210.380	210.914	206.647	8192	-8191	8192	8192	254	
76313.742	1	1	0	0	4602.01	4971.17	4361.41	3.569	3634.89	1614.66	529.648	4985.46	6825.89	8011.23	6695.54	49.0433	5231.59	2589.82	920.755	8652	30.318	219.809	28.711	273.854	206.945	209.049	213.805	206.791	8192	-8191	8192	8192	254	
76313.789	1	1	0	0	4663.2	4968.56	4397.27	8.48905	3569.53	1646.9	533.738	5008.9	6817.51	8051.87	6694.77	52.7115	5174.8	2611.05	913.707	8639.87	30.950	218.855	29.179	241.896	207.039	209.675	211.103	206.655	8192	-8191	8192	8192	254	
76313.844	1	1	0	0	4657.26	4923.96	4404.58	3.24482	3555.54	1639.01	512.65	5006.03	6833.49	7993.67	6702.61	53.4952	5159.65	2595.54	907.615	8613.44	30.600	219.452	29.963	263.941	206.787	209.292	213.464	205.778	8192	-8191	8192	8192	254	
76313.891	1	1	0	0	4671.16	5013.63	4435.28	7.41929	3537.25	1621.52	496.462	4965.9	6837.22	7984.53	6724.05	55.6538	5152.42	2608.47	902.635	8663.78	30.888	219.239	29.018	285.539	206.821	211.683	214.912	207.068	8192	-8191	8192	8192	254	
76313.938	1	1	0	0	4614.77	4976.79	4387.51	1.32118	3538.76	1668.05	503.604	5005.37	6850.35	8053.91	6685.95	53.1298	5147.12	2618.52	908.731	8686.52	30.577	218.811	29.266	234.238	206.368	209.236	213.130	206.850	8192	-8191	8192	8192	254	
76313.984	1	1	0	0	4607.66	4994.79	4507.25	5.12422	3572.36	1631.79	526.903	5051.52	6851.58	8015.32	6732	54.1779	5175.82	2593.76	917.096	8694.26	30.353	219.025	29.439	192.108	206.701	209.471	212.779	206.380	8192	-8191	8192	8192	254	
76314.055	1	1	0	0	4557.91	5046.83	4402.71	5.24006	3498.23	1656.22	508.202	5018.82	6796.73	8031.51	6685.67	54.4327	5139.83	2597.01	912.639	8654.78	30.931	219.117	28.748	257.742	205.995	210.771	215.024	206.938	8192	-8191	8192	8192	254	
76314.102	1	1	0	0	4644.43	4867.37	4370.01	4.87532	3568.92	1651.4	528.515	5097.47	6817.7	7952.02	6663.63	50.3125	5157.55	2610.09	914.139	8683.63	30.687	218.465	28.954	268.415	206.235	209.356	212.310	206.423	8192	-8191	8192	8192	254	
76314.148	1	1	0	0	4632.11	4971.82	4351.81	1.63239	3602.79	1634.51	523.037	4988.97	6812.17	7992.59	6637.29	51.4712	5169.71	2592.99	898.365	8673.56	30.117	218.750	28.591	226.435	206.860	210.501	213.729	207.096	8192	-8191	8192	8192	254	
76314.203	1	1	0	0	4554.83	4916.75	4402.49	6.17168	3570	1639.95	521.239	5032.17	6751.11	7995.3	6698.25	54.7212	5194.99	2599.03	907.62	8712.1	30.863	219.073	29.183	210.499	206.948	210.762	213.346	206.073	8192	-8191	8192	8192	254	
76314.203	1	1	0	0	4639.73	4936.36	4437.13	5.0251	3532.41	1689.27	521.186	5032.84	6789.34	8003.56	6691.32	52.7404	5146.6	2619.73	907.005	8700.63	30.553	219.028	29.255	155.500	206.559	208.614	211.553	206.431	8192	-8191	8192	8192	254	
76314.250	1	1	0	0	4681.08	4995.24	4422.28	10.7627	3553.78	1666.45	504.371	4972.94	6888.4	8013.95	6688.41	57.5	5147.96	2624.13	908.163	8661.89	31.235	218.691	29.107	181.393	206.098	209.711	213.738	207.077	8192	-8191	8192	8192	254	
76314.320	1	1	0	0	4664.67	4923.28	4442.39	9.23203	3519.36	1676.33	524.611	4987.71	6807.64	8004.62	6685.63	54.0385	5148.8	2624.14	922.014	8716.47	31.009	219.447	29.690	191.723	206.405	209.338	212.947	206.276	8192	-8191	8192	8192	254	
76314.367	1	1	0	0	4637.68	4983.42	4451.51	6.68258	3526.72	1627.7	523.846	5012.67	6811.67	8017.26	6720.9	49.3173	5137.14	2581.16	899.957	8686.22	30.505	219.262	29.168	207.888	206.086	210.109	214.010	206.774	8192	-8191	8192	8192	254	
76314.414	1	1	0	0	4654.86	5048.84	4366.52	8.13331	3576.33	1672.45	515.285	5008.87	6866.47	8049.58	6660.2	58.024	5175.39	2638.2	912.034	8645	31.777	219.471	29.295	224.320	207.048	209.728	216.358	206.095	8192	-8191	8192	8192	254	
76314.461	1	1	0	0	4556.05	5043.71	4390.34	9.05966	3557.61	1619.29	514.491	5026.52	6773.51	8013.43	6718.42	49.4327	5137.77	2592.22	921.976	8682.34	31.357	219.157	29.030	270.936	206.789	209.919	211.194	206.940	8192	-8191	8192	8192	254	
76314.516	1	1	0	0	4538.52	4984.25	4481.6	4.90081	3614.24	1635.09	503.869	5036.28	6804.15	8058.56	6696.89	49.0385	5189.67	2583.65	898.26	8679.11	31.266	218.872	29.490	286.002	206.301	211.465	212.228	207.190	8192	-8191	8192	8192	254	
76314.562	1	1	0	0	4669.23	4935.69	4409.3	6.45419	3546.98	1684.89	497.211	4954.05	6856.23	7989.12	6679.44	47.851	5171.28	2618.65	909.543	8686.88	31.161	219.348	29.800	193.766	206.796	209.842	213.269	206.748	8192	-8191	8192	8192	254	
76314.609	1	1	0	0	4599.25	4944.45	4382.18	7.61528	3622.04	1681.41	521.101	5042.64	6792.77	7960.48	6679.38	53.8029	5194.57	2648.47	932.37	8688.14	31.230	218.695	30.182	210.170	206.590	210.038	210.367	206.495	8192	-8191	8192	8192	254	
76314.656	1	1	0	0	4657.21	5015.24	4431.42	7.84355	3577.97	1708.62	522.913	5083.72	6833.42	8045.79	6704.17	52.2885	5185.04	2628.56	912.26	8712.61	31.222	219.600	29.276	210.233	206.734	209.992	212.014	206.550	8192	-8191	8192	8192	254	
76314.727	1	1	0	0	4652.92	5110.13	4454.11	7.25304	3571.92	1635.59	519.63	5035.07	6816.37	8055.22	6728	50.226	5149.7	2599.37	910.529	8693.86	31.047	219.431	29.527	238.862	206.391	211.481	214.043	206.019	8192	-8191	8192	8192	254	
76314.773	1	1	0	0	4579.64	4892.2	4366.91	1.48524	3518.64	1610.33	536.845	5033.12	6797.25	7986.29	6666.63	51.5048	5165.48	2584.41	927.346	8689.03	30.084	219.251	29.960	242.085	207.170	209.820	215.761	206.434	8192	-8191	8192	8192	254	
76314.820	1	1	0	0	4608.8	4946.56	4386.2	3.16144	3611.6	1670.84	534.208	5109.99	6821.65	8004.2	6674.5	53.6731	5178.01	2626.84	906.726	8731.14	30.603	218.616	29.783	233.928	206.335	208.604	212.893	205.450	8192	-8191	8192	8192	254	
76314.867	1	1	0	0	4702.9	4857.24	4401.46	7.48036	3589.34	1664.07	500.229	5062.66	6853.76	7956.02	6679.72	56.0144	5162.01	2618.55	893.26	8690.76	30.753	219.266	29.281	245.539	206.692	209.195	213.222	206.591	8192	-8191	8192	8192	254	
76314.922	1	1	0	0	4607.45	4913.77	4397.87	10.254	3537.27	1675.9	530.803	4983.02	6809.52	7974.85	6644.5	54.8413	5163.37	2619.49	910.971	8719.14	31.672	219.988	29.881	237.512	206.117	209.689	212.090	206.634	8192	-8191	8192	8192	254	
76314.969	1	1	0	0	4670.83	4975.19	4469.25	5.52554	3559.02	1678.54	511.414	5002.03	6823.81	8049.71	6743.96	50.2115	5152.12	2625.96	902.091	8659.65	30.792	218.688	29.506	202.131	206.517	210.993	213.389	206.552	8192	-8191	8192	8192	254	
76314.969	1	1	0	0	4667.13	5039.35	4375.8	8.98277	3525.5	1616.29	533.557	5017.78	6822.95	8028.37	6682.55	53.6394	5160.37	2597.41	902.303	8692.1	31.577	218.757	29.300	286.513	206.721	208.539	213.662	206.769	8192	-8191	8192	8192	254	
76315.016	1	1	0	0	4611.58	4911.08	4449.11	4.17996	3584.27	1641.44	531.829	5115.84	6790.43	7992.96	6697.17	49.0481	5165.19	2592.82	916.332	8741.23	31.193	219.403	29.215	213.963	207.507	210.131	213.891	206.605	8192	-8191	8192	8192	254	
76315.062	1	1	0	0	4663.99	5013.73	4457.88	6.67825	3586.91	1624.87	524.669	5026.94	6826.68	8058.99	6763.03	56.8702	5170.93	2609.52	914.413	8670.2	30.692	219.628	29.547	197.939	207.266	209.198	212.986	206.456	8192	-8191	8192	8192	254	
76315.109	1	1	0	0	4610.1	4946.74	4297.61	8.85767	3670.87	1607.17	517.276	5075.19	6784.65	7977.69	6650.9	55.3846	5220.41	2576.54	916.125	8712.42	30.838	218.446	30.196	199.219	206.706	209.551	210.992	206.731	8192	-8191	8192	8192	254	
